Time,Channel B
(ns),(mV)

-100.99999470,-9.58907400
-100.49999472,-9.57800100
-99.99999473,-9.74594000
-99.49999474,-10.09166000
-98.99999476,-10.14149000
-98.49999477,-9.88188800
-97.99999479,-9.82098900
-97.49999480,-9.95078800
-96.99999481,-10.00861000
-96.49999483,-9.99753900
-95.99999484,-9.99507800
-95.49999486,-9.99507800
-94.99999487,-9.99753900
-94.49999488,-10.00861000
-93.99999490,-9.95386200
-93.49999491,-9.83452200
-92.99999493,-9.83452200
-92.49999494,-9.95386200
-91.99999496,-10.00861000
-91.49999497,-9.99753900
-90.99999498,-9.99753900
-90.49999500,-10.00861000
-89.99999501,-9.95386200
-89.49999503,-9.83452200
-88.99999504,-9.84005800
-88.49999505,-9.98092900
-87.99999507,-9.92618100
-87.49999508,-9.67704200
-86.99999510,-9.67704200
-86.49999511,-9.92618100
-85.99999513,-9.98092900
-85.49999514,-9.84005800
-84.99999515,-9.83452200
-84.49999517,-9.95386200
-83.99999518,-10.00861000
-83.49999520,-9.99753900
-82.99999521,-9.99507800
-82.49999522,-9.99507800
-81.99999524,-9.99507800
-81.49999525,-9.99507800
-80.99999527,-9.99753900
-80.49999528,-10.00861000
-79.99999529,-9.95386200
-79.49999531,-9.83452200
-78.99999532,-9.83452200
-78.49999534,-9.95386200
-77.99999535,-10.00861000
-77.49999537,-9.99753900
-76.99999538,-9.99261800
-76.49999539,-9.98154500
-75.99999541,-10.04183000
-75.49999542,-10.18270000
-74.99999544,-10.07566000
-74.49999545,-9.72933000
-73.99999546,-9.61983200
-73.49999548,-9.74963100
-72.99999549,-9.86220500
-72.49999551,-9.95939900
-71.99999552,-10.01169000
-71.49999554,-10.01169000
-70.99999555,-9.95632300
-70.49999556,-9.84867000
-69.99999558,-9.79330700
-69.49999559,-9.79330700
-68.99999561,-9.84867000
-68.49999562,-9.95632300
-67.99999563,-10.01415000
-67.49999565,-10.02522000
-66.99999566,-9.91510800
-66.49999568,-9.68811500
-65.99999569,-9.63336600
-65.49999571,-9.75209100
-64.99999572,-9.86774200
-64.49999573,-9.98646600
-63.99999575,-9.93171700
-63.49999576,-9.70472400
-62.99999578,-9.59215000
-62.49999579,-9.59215000
-61.99999580,-9.70164800
-61.49999582,-9.91818300
-60.99999583,-10.02215000
-60.49999585,-10.00062000
-59.99999586,-9.99753900
-59.49999587,-10.00861000
-58.99999589,-9.95632300
-58.49999590,-9.84867000
-57.99999592,-9.79330700
-57.49999593,-9.79330700
-56.99999595,-9.85113100
-56.49999596,-9.97047100
-55.99999597,-9.96493600
-55.49999599,-9.82406500
-54.99999600,-9.87881400
-54.49999602,-10.12795000
-53.99999603,-10.13349000
-53.49999604,-9.90649500
-52.99999606,-9.74101800
-52.49999607,-9.64382400
-51.99999609,-9.64936000
-51.49999610,-9.76870100
-50.99999612,-9.82098900
-50.49999613,-9.79884200
-49.99999614,-9.84867000
-49.49999616,-9.95632300
-48.99999617,-10.00861000
-48.49999619,-9.99753900
-47.99999620,-9.99753900
-47.49999621,-10.00861000
-46.99999623,-9.95632300
-46.49999624,-9.84867000
-45.99999626,-9.79084600
-45.49999627,-9.77977300
-44.99999628,-9.88681100
-44.49999630,-10.10335000
-43.99999631,-10.21592000
-43.49999633,-10.22699000
-42.99999634,-10.06213000
-42.49999636,-9.72687000
-41.99999637,-9.62229300
-41.49999638,-9.76316400
-40.99999640,-9.82652600
-40.49999641,-9.82652600
-39.99999643,-9.76870100
-39.49999644,-9.64936000
-38.99999645,-9.65243500
-38.49999647,-9.78223300
-37.99999648,-9.78531000
-37.49999650,-9.66596900
-36.99999651,-9.60568300
-36.49999653,-9.59461100
-35.99999654,-9.70718500
-35.49999655,-9.94525100
-34.99999657,-9.94279000
-34.49999658,-9.69365100
-33.99999660,-9.63336600
-33.49999661,-9.75209100
-32.99999662,-9.85912800
-32.49999664,-9.94586600
-31.99999665,-10.04983000
-31.49999667,-10.15810000
-30.99999668,-10.15563000
-30.49999669,-10.03629000
-29.99999671,-9.98154500
-29.49999672,-9.99261800
-28.99999674,-9.99507800
-28.49999675,-9.99507800
-27.99999677,-9.99753900
-27.49999678,-10.00861000
-26.99999679,-9.95632300
-26.49999681,-9.84867000
-25.99999682,-9.79330700
-25.49999684,-9.79330700
-24.99999685,-9.84867000
-24.49999686,-9.95632300
-23.99999688,-10.00861000
-23.49999689,-9.99753900
-22.99999691,-9.99753900
-22.49999692,-10.00861000
-21.99999694,-9.95386200
-21.49999695,-9.83452200
-20.99999696,-9.83452200
-20.49999698,-9.95386200
-19.99999699,-10.01169000
-19.49999701,-10.01169000
-18.99999702,-9.95632300
-18.49999703,-9.84867000
-17.99999705,-9.79330700
-17.49999706,-9.79330700
-16.99999708,-9.84867000
-16.49999709,-9.95632300
-15.99999710,-10.01415000
-15.49999712,-10.02522000
-14.99999713,-9.91264700
-14.49999715,-9.67458200
-13.99999716,-9.67458200
-13.49999718,-9.91264700
-12.99999719,-10.02215000
-12.49999720,-10.00062000
-11.99999722,-10.00062000
-11.49999723,-10.02215000
-10.99999725,-9.91510800
-10.49999726,-9.68811500
-9.99999727,-9.63336600
-9.49999729,-9.75209100
-8.99999730,-9.86466500
-8.49999732,-9.97293300
-7.99999733,-9.96739700
-7.49999735,-9.83759800
-6.99999736,-9.83759800
-6.49999737,-9.96739700
-5.99999739,-9.97047100
-5.49999740,-9.85113100
-4.99999742,-9.79638200
-4.49999743,-9.80745600
-3.99999744,-9.81237700
-3.49999746,-9.82344900
-2.99999747,-9.76870100
-2.49999749,-9.64936000
-1.99999750,-9.64689900
-1.49999752,-9.75516700
-0.99999753,-9.86774200
-0.49999754,-9.98646600
0.00000244,-9.93171700
0.50000243,-9.70472400
1.00000241,-9.59461100
1.50000240,-9.60568300
2.00000239,-9.66043300
2.50000237,-9.75762700
3.00000236,-9.86466500
3.50000234,-9.97293300
4.00000233,-9.97293300
4.50000232,-9.86466500
5.00000230,-9.75516700
5.50000229,-9.64689900
6.00000227,-9.64382400
6.50000226,-9.74101800
7.00000224,-9.90342000
7.50000223,-10.11934000
8.00000222,-10.17470000
8.50000220,-10.06644000
9.00000219,-9.90711100
9.50000217,-9.71272100
10.00000216,-9.55585600
10.50000215,-9.45866100
11.00000213,-9.45866100
11.50000212,-9.55585600
12.00000210,-9.72133400
12.50000209,-9.94832700
13.00000207,-9.94279000
13.50000206,-9.69365100
14.00000205,-9.63336600
14.50000203,-9.75209100
15.00000202,-9.86466500
15.50000200,-9.97293300
16.00000199,-9.97047100
16.50000198,-9.85113100
17.00000196,-9.79330700
17.50000195,-9.79330700
18.00000193,-9.84867000
18.50000192,-9.95632300
19.00000191,-10.00861000
19.50000189,-9.99753900
20.00000188,-9.99507800
20.50000186,-9.99507800
21.00000185,-9.99753900
21.50000183,-10.00861000
22.00000182,-9.95386200
22.50000181,-9.83452200
23.00000179,-9.83759800
23.50000178,-9.96739700
24.00000176,-9.96739700
24.50000175,-9.83759800
25.00000174,-9.83759800
25.50000172,-9.96739700
26.00000171,-9.97047100
26.50000169,-9.85113100
27.00000168,-9.79638200
27.50000166,-9.80745600
28.00000165,-9.81237700
28.50000164,-9.82344900
29.00000162,-9.76562400
29.50000161,-9.63582600
30.00000159,-9.68811500
30.50000158,-9.91510800
31.00000157,-10.02522000
31.50000155,-10.01415000
32.00000154,-9.95632300
32.50000152,-9.84867000
33.00000151,-9.79330700
33.50000150,-9.79330700
34.00000148,-9.84559500
34.50000147,-9.94279000
35.00000145,-10.05290000
35.50000144,-10.17163000
36.00000142,-10.11934000
36.50000141,-9.90342000
37.00000140,-9.74101800
37.50000138,-9.64382400
38.00000137,-9.64689900
38.50000135,-9.75516700
39.00000134,-9.86466500
39.50000133,-9.97293300
40.00000131,-9.96739700
40.50000130,-9.83759800
41.00000128,-9.83759800
41.50000127,-9.96739700
42.00000125,-9.97047100
42.50000124,-9.85113100
43.00000123,-9.79330700
43.50000121,-9.79330700
44.00000120,-9.85113100
44.50000118,-9.97047100
45.00000117,-9.96739700
45.50000116,-9.83759800
46.00000114,-9.83452200
46.50000113,-9.95386200
47.00000111,-10.00861000
47.50000110,-9.99753900
48.00000108,-10.00062000
48.50000107,-10.02215000
49.00000106,-9.91510800
49.50000104,-9.68811500
50.00000103,-9.63336600
50.50000101,-9.75209100
51.00000100,-9.86220500
51.50000099,-9.95939900
52.00000097,-10.00861000
52.50000096,-9.99753900
53.00000094,-9.99753900
53.50000093,-10.00861000
54.00000092,-9.95386200
54.50000090,-9.83452200
55.00000089,-9.83759800
55.50000087,-9.96739700
56.00000086,-9.96739700
56.50000084,-9.83759800
57.00000083,-9.83452200
57.50000082,-9.95386200
58.00000080,-10.00861000
58.50000079,-9.99753900
59.00000077,-9.99507800
59.50000076,-9.99507800
60.00000075,-10.00062000
60.50000073,-10.02215000
61.00000072,-9.91818300
61.50000070,-9.70164800
62.00000069,-9.59768700
62.50000067,-9.61921700
63.00000066,-9.62475400
63.50000065,-9.62475400
64.00000063,-9.62475400
64.50000062,-9.62475400
65.00000060,-9.62229300
65.50000059,-9.61122000
66.00000058,-9.66043300
66.50000056,-9.75762700
67.00000055,-9.86220500
67.50000053,-9.95939900
68.00000052,-10.01169000
68.50000051,-10.01169000
69.00000049,-9.95632300
69.50000048,-9.84867000
70.00000046,-9.79084600
70.50000045,-9.77977300
71.00000043,-9.88988600
71.50000042,-10.11688000
72.00000041,-10.16917000
72.50000039,-10.03937000
73.00000038,-9.98154500
73.50000036,-9.99261800
74.00000035,-9.99507800
74.50000034,-9.99507800
75.00000032,-9.99507800
75.50000031,-9.99507800
76.00000029,-10.00062000
76.50000028,-10.02215000
77.00000026,-9.91510800
77.50000025,-9.68811500
78.00000024,-9.63336600
78.50000022,-9.75209100
79.00000021,-9.86774200
79.50000019,-9.98646600
80.00000018,-9.92618100
80.50000017,-9.67704200
81.00000015,-9.67458200
81.50000014,-9.91264700
82.00000012,-10.01968000
82.50000011,-9.98708100
83.00000010,-10.03937000
83.50000008,-10.16917000
84.00000007,-10.11934000
84.50000005,-9.90342000
85.00000004,-9.74409400
85.50000002,-9.65797200
86.00000001,-9.60568300
86.50000000,-9.59461100
86.99999998,-9.70164800
87.49999997,-9.91818300
87.99999995,-10.02215000
88.49999994,-10.00062000
88.99999993,-10.00062000
89.49999991,-10.02215000
89.99999990,-9.91510800
90.49999988,-9.68811500
90.99999987,-9.63336600
91.49999985,-9.75209100
91.99999984,-9.86220500
92.49999983,-9.95939900
92.99999981,-10.00615000
93.49999980,-9.98400600
93.99999978,-10.03383000
94.49999977,-10.14149000
94.99999976,-10.19931000
95.49999974,-10.21038000
95.99999973,-10.10335000
96.49999971,-9.88681100
96.99999970,-9.78284900
97.49999969,-9.80437900
97.99999967,-9.80745600
98.49999966,-9.79638200
98.99999964,-9.84559500
99.49999963,-9.94279000
99.99999961,-10.04983000
100.49999960,-10.15810000
100.99999959,-10.15563000
101.49999957,-10.03629000
101.99999956,-9.97846900
102.49999954,-9.97846900
102.99999953,-10.03629000
103.49999952,-10.15563000
103.99999950,-10.15810000
104.49999949,-10.04983000
104.99999947,-9.94586600
105.49999946,-9.85912800
105.99999944,-9.75762700
106.49999943,-9.66043300
106.99999942,-9.60814500
107.49999940,-9.60814500
107.99999939,-9.66596900
108.49999937,-9.78531000
108.99999936,-9.78223300
109.49999935,-9.65243500
109.99999933,-9.64689900
110.49999932,-9.75516700
110.99999930,-9.86220500
111.49999929,-9.95939900
111.99999927,-10.01415000
112.49999926,-10.02522000
112.99999925,-9.91510800
113.49999923,-9.68811500
113.99999922,-9.63336600
114.49999920,-9.75209100
114.99999919,-9.86466500
115.49999918,-9.97293300
115.99999916,-9.97600800
116.49999915,-9.87881400
116.99999913,-9.71087600
117.49999912,-9.47280900
117.99999911,-9.52817300
118.49999909,-9.87389300
118.99999908,-10.03629000
119.49999906,-10.00308000
119.99999905,-9.99507800
120.49999903,-9.99507800
120.99999902,-9.99507800
121.49999901,-9.99507800
121.99999899,-9.99507800
122.49999898,-9.99507800
122.99999896,-9.99753900
123.49999895,-10.00861000
123.99999894,-9.95632300
124.49999892,-9.84867000
124.99999891,-9.79638200
125.49999889,-9.80745600
125.99999888,-9.80991600
126.49999886,-9.80991600
126.99999885,-9.80745600
127.49999884,-9.79638200
127.99999882,-9.85420700
128.49999881,-9.98400600
128.99999879,-9.92618100
129.49999878,-9.67704200
129.99999877,-9.67458200
130.49999875,-9.91264700
130.99999874,-10.01968000
131.49999872,-9.98708100
131.99999871,-10.03629000
132.49999870,-10.15563000
132.99999868,-10.15810000
133.49999867,-10.04983000
133.99999865,-9.94033000
134.49999864,-9.83206100
134.99999862,-9.83452200
135.49999861,-9.95386200
135.99999860,-10.00861000
136.49999858,-9.99753900
136.99999857,-9.99753900
137.49999855,-10.00861000
137.99999854,-9.95632300
138.49999853,-9.84867000
138.99999851,-9.79330700
139.49999850,-9.79330700
139.99999848,-9.85420700
140.49999847,-9.98400600
140.99999845,-9.93171700
141.49999844,-9.70472400
141.99999843,-9.59215000
142.49999841,-9.59215000
142.99999840,-9.70718500
143.49999838,-9.94525100
143.99999837,-9.94525100
144.49999836,-9.70718500
144.99999834,-9.59461100
145.49999833,-9.60568300
145.99999831,-9.66043300
146.49999830,-9.75762700
146.99999829,-9.86220500
147.49999827,-9.95939900
147.99999826,-10.01415000
148.49999824,-10.02522000
148.99999823,-9.91510800
149.49999821,-9.68811500
149.99999820,-9.63890200
150.49999819,-9.77977300
150.99999817,-9.78531000
151.49999816,-9.66596900
151.99999814,-9.60814500
152.49999813,-9.60814500
152.99999812,-9.66904400
153.49999810,-9.79884200
153.99999809,-9.74347900
154.49999807,-9.50602800
154.99999806,-9.44512700
155.49999804,-9.55339500
155.99999803,-9.71579600
156.49999802,-9.92064400
156.99999800,-10.02522000
157.49999799,-10.01415000
157.99999797,-9.95386200
158.49999796,-9.83452200
158.99999795,-9.83759800
159.49999793,-9.96739700
159.99999792,-9.97293300
160.49999790,-9.86466500
160.99999789,-9.74963100
161.49999787,-9.61983200
161.99999786,-9.72933000
162.49999785,-10.07566000
162.99999783,-10.18270000
163.49999782,-10.04183000
163.99999780,-9.98708100
164.49999779,-10.01968000
164.99999778,-9.91818300
165.49999776,-9.70164800
165.99999775,-9.59215000
166.49999773,-9.59215000
166.99999772,-9.70472400
167.49999771,-9.93171700
167.99999769,-9.98092900
168.49999768,-9.84005800
168.99999766,-9.84005800
169.49999765,-9.98092900
169.99999763,-9.92618100
170.49999762,-9.67704200
170.99999761,-9.67458200
171.49999759,-9.91264700
171.99999758,-10.02522000
172.49999756,-10.01415000
172.99999755,-9.95632300
173.49999754,-9.84867000
173.99999752,-9.79638200
174.49999751,-9.80745600
174.99999749,-9.80991600
175.49999748,-9.80991600
175.99999746,-9.80991600
176.49999745,-9.80991600
176.99999744,-9.80991600
177.49999742,-9.80991600
177.99999741,-9.80745600
178.49999739,-9.79638200
178.99999738,-9.84867000
179.49999737,-9.95632300
179.99999735,-10.01415000
180.49999734,-10.02522000
180.99999732,-9.91510800
181.49999731,-9.68811500
181.99999730,-9.63336600
182.49999728,-9.75209100
182.99999727,-9.86466500
183.49999725,-9.97293300
183.99999724,-9.97047100
184.49999722,-9.85113100
184.99999721,-9.79638200
185.49999720,-9.80745600
185.99999718,-9.80745600
186.49999717,-9.79638200
186.99999715,-9.84867000
187.49999714,-9.95632300
187.99999713,-10.01415000
188.49999711,-10.02522000
188.99999710,-9.91818300
189.49999708,-9.70164800
189.99999707,-9.59461100
190.49999705,-9.60568300
190.99999704,-9.66596900
191.49999703,-9.78531000
191.99999701,-9.78223300
192.49999700,-9.65243500
192.99999698,-9.64936000
193.49999697,-9.76870100
193.99999696,-9.82098900
194.49999694,-9.79884200
194.99999693,-9.85113100
195.49999691,-9.97047100
195.99999690,-9.97047100
196.49999689,-9.85113100
196.99999687,-9.79638200
197.49999686,-9.80745600
197.99999684,-9.80437900
198.49999683,-9.78284900
198.99999681,-9.89542300
199.49999680,-10.14395000
199.99999679,-10.09166000
200.49999677,-9.74594000
200.99999676,-9.58353800
201.49999674,-9.61675600
201.99999673,-9.62229300
202.49999672,-9.61122000
202.99999670,-9.66043300
203.49999669,-9.75762700
203.99999667,-9.86774200
204.49999666,-9.98646600
204.99999664,-9.93171700
205.49999663,-9.70472400
205.99999662,-9.58907400
206.49999660,-9.57800100
206.99999659,-9.74286400
207.49999657,-10.07812000
207.99999656,-10.18516000
208.49999655,-10.05536000
208.99999653,-9.94033000
209.49999652,-9.83206100
209.99999650,-9.83452200
210.49999649,-9.95386200
210.99999648,-10.00861000
211.49999646,-9.99753900
211.99999645,-10.00062000
212.49999643,-10.02215000
212.99999642,-9.91264700
213.49999640,-9.67458200
213.99999639,-9.67458200
214.49999638,-9.91264700
214.99999636,-10.02215000
215.49999635,-10.00062000
215.99999633,-9.99753900
216.49999632,-10.00861000
216.99999631,-9.96186000
217.49999629,-9.87573700
217.99999628,-9.71333600
218.49999626,-9.48634300
218.99999625,-9.48634300
219.49999623,-9.71333600
219.99999622,-9.88127400
220.49999621,-9.98954200
220.99999619,-9.92864100
221.49999618,-9.69119100
221.99999616,-9.63336600
222.49999615,-9.75209100
222.99999614,-9.86220500
223.49999612,-9.95939900
223.99999611,-10.01415000
224.49999609,-10.02522000
224.99999608,-9.91510800
225.49999606,-9.68811500
225.99999605,-9.63336600
226.49999604,-9.75209100
226.99999602,-9.86220500
227.49999601,-9.95939900
227.99999599,-10.01415000
228.49999598,-10.02522000
228.99999597,-9.91818300
229.49999595,-9.70164800
229.99999594,-9.59768700
230.49999592,-9.61921700
230.99999591,-9.62229300
231.49999590,-9.61122000
231.99999588,-9.66043300
232.49999587,-9.75762700
232.99999585,-9.86466500
233.49999584,-9.97293300
233.99999582,-9.96739700
234.49999581,-9.83759800
234.99999580,-9.83206100
235.49999578,-9.94033000
235.99999577,-10.05536000
236.49999575,-10.18516000
236.99999574,-10.07566000
237.49999573,-9.72933000
237.99999571,-9.62229300
238.49999570,-9.76316400
238.99999568,-9.82344900
239.49999567,-9.81237700
239.99999565,-9.80991600
240.49999564,-9.80991600
240.99999563,-9.80991600
241.49999561,-9.80991600
241.99999560,-9.80437900
242.49999558,-9.78284900
242.99999557,-9.88681100
243.49999556,-10.10335000
243.99999554,-10.21284000
244.49999553,-10.21284000
244.99999551,-10.10335000
245.49999550,-9.88681100
245.99999549,-9.77977300
246.49999547,-9.79084600
246.99999546,-9.85420700
247.49999544,-9.98400600
247.99999543,-9.92864100
248.49999541,-9.69119100
248.99999540,-9.63890200
249.49999539,-9.77977300
249.99999537,-9.78531000
250.49999536,-9.66596900
250.99999534,-9.60568300
251.49999533,-9.59461100
251.99999532,-9.70718500
252.49999530,-9.94525100
252.99999529,-9.93971300
253.49999527,-9.68011800
253.99999526,-9.67458200
254.49999524,-9.91264700
254.99999523,-10.02522000
255.49999522,-10.01415000
255.99999520,-9.95939900
256.49999519,-9.86220500
256.99999517,-9.75209100
257.49999516,-9.63336600
257.99999515,-9.68565500
258.49999513,-9.90157400
258.99999512,-10.06398000
259.49999510,-10.16117000
259.99999509,-10.15810000
260.49999508,-10.04983000
260.99999506,-9.94033000
261.49999505,-9.83206100
261.99999503,-9.83206100
262.49999502,-9.94033000
262.99999500,-10.05536000
263.49999499,-10.18516000
263.99999498,-10.07566000
264.49999496,-9.72933000
264.99999495,-9.62783000
265.49999493,-9.79023100
265.99999492,-9.74347900
266.49999491,-9.50602800
266.99999489,-9.44512700
267.49999488,-9.55339500
267.99999486,-9.72133400
268.49999485,-9.94832700
268.99999483,-9.94525100
269.49999482,-9.70718500
269.99999481,-9.59461100
270.49999479,-9.60568300
270.99999478,-9.66596900
271.49999476,-9.78531000
271.99999475,-9.78531000
272.49999474,-9.66596900
272.99999472,-9.60568300
273.49999471,-9.59461100
273.99999469,-9.70164800
274.49999468,-9.91818300
274.99999466,-10.02215000
275.49999465,-10.00062000
275.99999464,-9.99507800
276.49999462,-9.99507800
276.99999461,-9.99753900
277.49999459,-10.00861000
277.99999458,-9.95386200
278.49999457,-9.83452200
278.99999455,-9.83759800
279.49999454,-9.96739700
279.99999452,-9.96739700
280.49999451,-9.83759800
280.99999450,-9.83759800
281.49999448,-9.96739700
281.99999447,-9.97047100
282.49999445,-9.85113100
282.99999444,-9.79330700
283.49999442,-9.79330700
283.99999441,-9.85113100
284.49999440,-9.97047100
284.99999438,-9.97047100
285.49999437,-9.85113100
285.99999435,-9.79084600
286.49999434,-9.77977300
286.99999433,-9.88681100
287.49999431,-10.10335000
287.99999430,-10.21284000
288.49999428,-10.21284000
288.99999427,-10.10027000
289.49999425,-9.87327700
289.99999424,-9.82098900
290.49999423,-9.95078800
290.99999421,-10.00861000
291.49999420,-9.99753900
291.99999418,-9.99753900
292.49999417,-10.00861000
292.99999416,-9.95386200
293.49999414,-9.83452200
293.99999413,-9.83206100
294.49999411,-9.94033000
294.99999410,-10.05290000
295.49999409,-10.17163000
295.99999407,-10.11380000
296.49999406,-9.87635300
296.99999404,-9.82652600
297.49999403,-9.97846900
297.99999401,-9.92864100
298.49999400,-9.69119100
298.99999399,-9.63582600
299.49999397,-9.76562400
299.99999396,-9.82652600
300.49999394,-9.82652600
300.99999393,-9.76870100
301.49999392,-9.64936000
301.99999390,-9.64936000
302.49999389,-9.76870100
302.99999387,-9.82344900
303.49999386,-9.81237700
303.99999384,-9.80745600
304.49999383,-9.79638200
304.99999382,-9.84867000
305.49999380,-9.95632300
305.99999379,-10.00861000
306.49999377,-9.99753900
306.99999376,-9.99507800
307.49999375,-9.99507800
307.99999373,-10.00062000
308.49999372,-10.02215000
308.99999370,-9.91510800
309.49999369,-9.68811500
309.99999368,-9.63890200
310.49999366,-9.77977300
310.99999365,-9.78223300
311.49999363,-9.65243500
311.99999362,-9.64689900
312.49999360,-9.75516700
312.99999359,-9.86466500
313.49999358,-9.97293300
313.99999356,-9.96739700
314.49999355,-9.83759800
314.99999353,-9.83452200
315.49999352,-9.95386200
315.99999351,-10.01415000
316.49999349,-10.02522000
316.99999348,-9.91818300
317.49999346,-9.70164800
317.99999345,-9.59461100
318.49999343,-9.60568300
318.99999342,-9.65797200
319.49999341,-9.74409400
319.99999339,-9.90895600
320.49999338,-10.14702000
320.99999336,-10.08920000
321.49999335,-9.73240600
321.99999334,-9.61983200
322.49999332,-9.74963100
322.99999331,-9.86466500
323.49999329,-9.97293300
323.99999328,-9.97047100
324.49999327,-9.85113100
324.99999325,-9.79638200
325.49999324,-9.80745600
325.99999322,-9.80745600
326.49999321,-9.79638200
326.99999319,-9.85113100
327.49999318,-9.97047100
327.99999317,-9.97047100
328.49999315,-9.85113100
328.99999314,-9.79884200
329.49999312,-9.82098900
329.99999311,-9.76870100
330.49999310,-9.64936000
330.99999308,-9.64689900
331.49999307,-9.75516700
331.99999305,-9.87020200
332.49999304,-9.99999900
332.99999302,-9.88496500
333.49999301,-9.51710100
333.99999300,-9.51402500
334.49999298,-9.87143200
334.99999297,-10.04183000
335.49999295,-10.03076000
335.99999294,-9.91818300
336.49999293,-9.70164800
336.99999291,-9.59461100
337.49999290,-9.60568300
337.99999288,-9.65797200
338.49999287,-9.74409400
338.99999285,-9.90342000
339.49999284,-10.11934000
339.99999283,-10.16917000
340.49999281,-10.03937000
340.99999280,-9.98400600
341.49999278,-10.00615000
341.99999277,-9.95632300
342.49999276,-9.84867000
342.99999274,-9.79330700
343.49999273,-9.79330700
343.99999271,-9.84867000
344.49999270,-9.95632300
344.99999269,-10.01415000
345.49999267,-10.02522000
345.99999266,-9.91264700
346.49999264,-9.67458200
346.99999263,-9.67704200
347.49999261,-9.92618100
347.99999260,-9.98400600
348.49999259,-9.85420700
348.99999257,-9.79638200
349.49999256,-9.80745600
349.99999254,-9.80745600
350.49999253,-9.79638200
350.99999252,-9.84867000
351.49999250,-9.95632300
351.99999249,-10.01415000
352.49999247,-10.02522000
352.99999246,-9.91510800
353.49999244,-9.68811500
353.99999243,-9.63336600
354.49999242,-9.75209100
354.99999240,-9.86466500
355.49999239,-9.97293300
355.99999237,-9.97047100
356.49999236,-9.85113100
356.99999235,-9.79330700
357.49999233,-9.79330700
357.99999232,-9.85113100
358.49999230,-9.97047100
358.99999229,-9.96739700
359.49999228,-9.83759800
359.99999226,-9.83452200
360.49999225,-9.95386200
360.99999223,-10.01415000
361.49999222,-10.02522000
361.99999220,-9.91510800
362.49999219,-9.68811500
362.99999218,-9.63336600
363.49999216,-9.75209100
363.99999215,-9.86466500
364.49999213,-9.97293300
364.99999212,-9.96739700
365.49999211,-9.83759800
365.99999209,-9.83206100
366.49999208,-9.94033000
366.99999206,-10.04983000
367.49999205,-10.15810000
367.99999203,-10.16117000
368.49999202,-10.06398000
368.99999201,-9.90157400
369.49999199,-9.68565500
369.99999198,-9.63029000
370.49999196,-9.73855800
370.99999195,-9.90096000
371.49999194,-10.10581000
371.99999192,-10.21284000
372.49999191,-10.21284000
372.99999189,-10.10335000
373.49999188,-9.88681100
373.99999187,-9.77977300
374.49999185,-9.79084600
374.99999184,-9.85420700
375.49999182,-9.98400600
375.99999181,-9.92618100
376.49999179,-9.67704200
376.99999178,-9.68257800
377.49999177,-9.95324800
377.99999175,-9.90096000
378.49999174,-9.53371000
378.99999172,-9.47280900
379.49999171,-9.71087600
379.99999170,-9.87573700
380.49999168,-9.96186000
380.99999167,-10.00861000
381.49999165,-9.99753900
381.99999164,-9.99507800
382.49999162,-9.99507800
382.99999161,-9.99753900
383.49999160,-10.00861000
383.99999158,-9.95939900
384.49999157,-9.86220500
384.99999155,-9.75516700
385.49999154,-9.64689900
385.99999153,-9.64689900
386.49999151,-9.75516700
386.99999150,-9.86220500
387.49999148,-9.95939900
387.99999147,-10.01415000
388.49999145,-10.02522000
388.99999144,-9.91510800
389.49999143,-9.68811500
389.99999141,-9.63029000
390.49999140,-9.73855800
390.99999138,-9.90096000
391.49999137,-10.10581000
391.99999136,-10.21038000
392.49999134,-10.19931000
392.99999133,-10.14456000
393.49999131,-10.04737000
393.99999130,-9.94033000
394.49999129,-9.83206100
394.99999127,-9.83452200
395.49999126,-9.95386200
395.99999124,-10.01169000
396.49999123,-10.01169000
396.99999121,-9.96186000
397.49999120,-9.87573700
397.99999119,-9.71087600
398.49999117,-9.47280900
398.99999116,-9.53063400
399.49999114,-9.88742500
399.99999113,-9.99446300
400.49999112,-9.84313500
400.99999110,-9.83759800
401.49999109,-9.96739700
401.99999107,-9.96739700
402.49999106,-9.83759800
402.99999104,-9.83452200
403.49999103,-9.95386200
403.99999102,-10.01415000
404.49999100,-10.02522000
404.99999099,-9.91510800
405.49999097,-9.68811500
405.99999096,-9.63582600
406.49999095,-9.76562400
406.99999093,-9.82652600
407.49999092,-9.82652600
407.99999090,-9.76562400
408.49999089,-9.63582600
408.99999088,-9.69119100
409.49999086,-9.92864100
409.99999085,-9.98646600
410.49999083,-9.86774200
410.99999082,-9.75209100
411.49999080,-9.63336600
411.99999079,-9.69119100
412.49999078,-9.92864100
412.99999076,-9.98400600
413.49999075,-9.85420700
413.99999073,-9.79330700
414.49999072,-9.79330700
414.99999071,-9.84867000
415.49999069,-9.95632300
415.99999068,-10.00861000
416.49999066,-9.99753900
416.99999065,-9.99507800
417.49999063,-9.99507800
417.99999062,-9.99507800
418.49999061,-9.99507800
418.99999059,-9.99753900
419.49999058,-10.00861000
419.99999056,-9.95939900
420.49999055,-9.86220500
420.99999054,-9.75762700
421.49999052,-9.66043300
421.99999051,-9.60568300
422.49999049,-9.59461100
422.99999048,-9.70472400
423.49999047,-9.93171700
423.99999045,-9.98092900
424.49999044,-9.84005800
424.99999042,-9.83759800
425.49999041,-9.96739700
425.99999039,-9.97047100
426.49999038,-9.85113100
426.99999037,-9.79330700
427.49999035,-9.79330700
427.99999034,-9.85113100
428.49999032,-9.97047100
428.99999031,-9.97600800
429.49999030,-9.87881400
429.99999028,-9.71087600
430.49999027,-9.47280900
430.99999025,-9.53371000
431.49999024,-9.90096000
431.99999022,-9.95632300
432.49999021,-9.69672700
432.99999020,-9.63336600
433.49999018,-9.75209100
433.99999017,-9.86220500
434.49999015,-9.95939900
434.99999014,-10.00861000
435.49999013,-9.99753900
435.99999011,-9.99753900
436.49999010,-10.00861000
436.99999008,-9.95386200
437.49999007,-9.83452200
437.99999006,-9.83452200
438.49999004,-9.95386200
438.99999003,-10.00861000
439.49999001,-9.99753900
439.99999000,-9.99753900
440.49998998,-10.00861000
440.99998997,-9.95632300
441.49998996,-9.84867000
441.99998994,-9.79330700
442.49998993,-9.79330700
442.99998991,-9.84559500
443.49998990,-9.94279000
443.99998989,-10.05290000
444.49998987,-10.17163000
444.99998986,-10.11688000
445.49998984,-9.88988600
445.99998983,-9.77977300
446.49998981,-9.79084600
446.99998980,-9.84867000
447.49998979,-9.95632300
447.99998977,-10.01722000
448.49998976,-10.03875000
448.99998974,-9.87389300
449.49998973,-9.52817300
449.99998972,-9.47280900
450.49998970,-9.71087600
450.99998969,-9.87573700
451.49998967,-9.96186000
451.99998966,-10.01415000
452.49998964,-10.02522000
452.99998963,-9.91510800
453.49998962,-9.68811500
453.99998960,-9.63336600
454.49998959,-9.75209100
454.99998957,-9.86774200
455.49998956,-9.98646600
455.99998955,-9.93171700
456.49998953,-9.70472400
456.99998952,-9.59461100
457.49998950,-9.60568300
457.99998949,-9.66350800
458.49998948,-9.77116100
458.99998946,-9.82098900
459.49998945,-9.79884200
459.99998943,-9.85420700
460.49998942,-9.98400600
460.99998940,-9.92864100
461.49998939,-9.69119100
461.99998938,-9.63029000
462.49998936,-9.73855800
462.99998935,-9.90342000
463.49998933,-10.11934000
463.99998932,-10.16917000
464.49998931,-10.03937000
464.99998929,-9.98400600
465.49998928,-10.00615000
465.99998926,-9.95386200
466.49998925,-9.83452200
466.99998923,-9.83452200
467.49998922,-9.95386200
467.99998921,-10.01415000
468.49998919,-10.02522000
468.99998918,-9.91818300
469.49998916,-9.70164800
469.99998915,-9.59461100
470.49998914,-9.60568300
470.99998912,-9.66596900
471.49998911,-9.78531000
471.99998909,-9.78223300
472.49998908,-9.65243500
472.99998907,-9.64936000
473.49998905,-9.76870100
473.99998904,-9.82098900
474.49998902,-9.79884200
474.99998901,-9.84867000
475.49998899,-9.95632300
475.99998898,-10.01169000
476.49998897,-10.01169000
476.99998895,-9.95386200
477.49998894,-9.83452200
477.99998892,-9.83452200
478.49998891,-9.95386200
478.99998890,-10.00861000
479.49998888,-9.99753900
479.99998887,-9.99753900
480.49998885,-10.00861000
480.99998884,-9.95632300
481.49998882,-9.84867000
481.99998881,-9.79330700
482.49998880,-9.79330700
482.99998878,-9.84867000
483.49998877,-9.95632300
483.99998875,-10.01169000
484.49998874,-10.01169000
484.99998873,-9.95386200
485.49998871,-9.83452200
485.99998870,-9.83206100
486.49998868,-9.94033000
486.99998867,-10.05536000
487.49998866,-10.18516000
487.99998864,-10.07812000
488.49998863,-9.74286400
488.99998861,-9.58353800
489.49998860,-9.61675600
489.99998858,-9.62475400
490.49998857,-9.62475400
490.99998856,-9.61921700
491.49998854,-9.59768700
491.99998853,-9.70472400
492.49998851,-9.93171700
492.99998850,-9.98400600
493.49998849,-9.85420700
493.99998847,-9.79330700
494.49998846,-9.79330700
494.99998844,-9.85113100
495.49998843,-9.97047100
495.99998841,-9.97293300
496.49998840,-9.86466500
496.99998839,-9.75762700
497.49998837,-9.66043300
497.99998836,-9.60814500
498.49998834,-9.60814500
498.99998833,-9.66350800
499.49998832,-9.77116100
499.99998830,-9.82344900
500.49998829,-9.81237700
500.99998827,-9.80991600
501.49998826,-9.80991600
501.99998824,-9.80745600
502.49998823,-9.79638200
502.99998822,-9.85420700
503.49998820,-9.98400600
503.99998819,-9.92864100
504.49998817,-9.69119100
504.99998816,-9.63890200
505.49998815,-9.77977300
505.99998813,-9.78223300
506.49998812,-9.65243500
506.99998810,-9.64689900
507.49998809,-9.75516700
507.99998808,-9.87020200
508.49998806,-9.99999900
508.99998805,-9.88742500
509.49998803,-9.53063400
509.99998802,-9.47280900
510.49998800,-9.71087600
510.99998799,-9.87881400
511.49998798,-9.97600800
511.99998796,-9.97047100
512.49998795,-9.85113100
512.99998793,-9.79884200
513.49998792,-9.82098900
513.99998791,-9.77116100
514.49998789,-9.66350800
514.99998788,-9.60568300
515.49998786,-9.59461100
515.99998785,-9.70164800
516.49998783,-9.91818300
516.99998782,-10.02215000
517.49998781,-10.00062000
517.99998779,-9.98954200
518.49998778,-9.96801100
518.99998776,-10.08059000
519.49998775,-10.32911000
519.99998774,-10.27436000
520.49998772,-9.91756900
520.99998771,-9.80745600
521.49998769,-9.94832700
521.99998768,-10.00861000
522.49998767,-9.99753900
522.99998765,-9.99507800
523.49998764,-9.99507800
523.99998762,-10.00062000
524.49998761,-10.02215000
524.99998759,-9.91510800
525.49998758,-9.68811500
525.99998757,-9.63336600
526.49998755,-9.75209100
526.99998754,-9.86774200
527.49998752,-9.98646600
527.99998751,-9.93171700
528.49998750,-9.70472400
528.99998748,-9.59461100
529.49998747,-9.60568300
529.99998745,-9.66043300
530.49998744,-9.75762700
530.99998742,-9.86220500
531.49998741,-9.95939900
531.99998740,-10.01169000
532.49998738,-10.01169000
532.99998737,-9.95632300
533.49998735,-9.84867000
533.99998734,-9.79638200
534.49998733,-9.80745600
534.99998731,-9.80991600
535.49998730,-9.80991600
535.99998728,-9.80991600
536.49998727,-9.80991600
536.99998726,-9.80991600
537.49998724,-9.80991600
537.99998723,-9.80745600
538.49998721,-9.79638200
538.99998720,-9.84867000
539.49998718,-9.95632300
539.99998717,-10.01722000
540.49998716,-10.03875000
540.99998714,-9.87942800
541.49998713,-9.55524100
541.99998711,-9.39037900
542.49998710,-9.39037900
542.99998709,-9.56077800
543.49998707,-9.90649500
543.99998706,-9.95632300
544.49998704,-9.69672700
544.99998703,-9.63029000
545.49998701,-9.73855800
545.99998700,-9.90096000
546.49998699,-10.10581000
546.99998697,-10.20731000
547.49998696,-10.18578000
547.99998694,-10.18270000
548.49998693,-10.19377000
548.99998692,-10.14456000
549.49998690,-10.04737000
549.99998689,-9.93725300
550.49998687,-9.81852800
550.99998686,-9.87081600
551.49998685,-10.08674000
551.99998683,-10.24914000
552.49998682,-10.34633000
552.99998680,-10.34633000
553.49998679,-10.24914000
553.99998677,-10.08674000
554.49998676,-9.87081600
554.99998675,-9.82406500
555.49998673,-9.96493600
555.99998672,-9.97293300
556.49998670,-9.86466500
556.99998669,-9.75516700
557.49998668,-9.64689900
557.99998666,-9.64689900
558.49998665,-9.75516700
558.99998663,-9.86466500
559.49998662,-9.97293300
559.99998660,-9.97293300
560.49998659,-9.86466500
560.99998658,-9.75516700
561.49998656,-9.64689900
561.99998655,-9.64936000
562.49998653,-9.76870100
562.99998652,-9.82098900
563.49998651,-9.79884200
563.99998649,-9.84867000
564.49998648,-9.95632300
564.99998646,-10.01169000
565.49998645,-10.01169000
565.99998643,-9.95386200
566.49998642,-9.83452200
566.99998641,-9.83452200
567.49998639,-9.95386200
567.99998638,-10.00861000
568.49998636,-9.99753900
568.99998635,-10.00062000
569.49998634,-10.02215000
569.99998632,-9.90957200
570.49998631,-9.66104800
570.99998629,-9.70780000
571.49998628,-10.03199000
571.99998627,-10.30942000
572.49998625,-10.53642000
572.99998624,-10.42384000
573.49998622,-9.96985700
573.99998621,-9.73609600
574.49998619,-9.70349400
574.99998618,-10.09043000
575.49998617,-10.89013000
575.99998615,-11.08575000
576.49998614,-10.73019000
576.99998612,-9.81237700
577.49998611,-8.50701200
577.99998610,-7.01279500
578.49998608,-5.57763300
578.99998607,-4.69119100
579.49998605,-4.58476800
579.99998604,-4.23043800
580.49998602,-3.81028500
580.99998601,-3.15391200
581.49998600,-2.39849900
581.99998598,-1.73905000
582.49998597,-1.30844000
582.99998595,-0.97871550
583.49998594,-0.87167810
583.99998593,-0.53949310
584.49998591,-0.09781004
584.99998590,0.50873520
585.49998588,1.15649600
585.99998587,1.77719000
586.49998586,2.27362200
586.99998584,2.35851400
587.49998583,1.97957700
587.99998581,1.82332700
588.49998580,1.91006400
588.99998578,1.67138300
589.49998577,1.18602300
589.99998576,0.65329720
590.49998574,0.12426180
590.99998573,0.07504921
591.49998571,0.51734740
591.99998570,0.95964560
592.49998569,1.39210100
592.99998567,1.40317400
593.49998566,1.01439500
593.99998564,0.38016730
594.49998563,-0.42937990
594.99998561,-0.90182080
595.49998560,-0.97687000
595.99998559,-0.74064960
596.49998557,-0.16793800
596.99998556,0.00492126
597.49998554,-0.21038380
597.99998553,-0.58132380
598.49998552,-1.06729800
598.99998550,-1.47637800
599.49998549,-1.73474400
599.99998547,-1.93282500
600.49998546,-2.01894700
600.99998545,-2.02694400
601.49998543,-1.97342500
601.99998542,-1.61663400
602.49998540,-1.02300700
602.99998539,-0.48720470
603.49998537,-0.05536417
603.99998536,-0.13779530
604.49998535,-0.67728840
604.99998533,-1.71505900
605.49998532,-3.09670300
605.99998530,-4.12955200
606.49998529,-4.64689900
606.99998528,-4.84498000
607.49998526,-4.67212100
607.99998525,-4.06250000
608.49998523,-3.13484200
608.99998522,-1.97281000
609.49998520,-0.70927660
609.99998519,-0.43184050
610.49998518,-1.14419300
610.99998516,-2.34498000
611.49998515,-3.86626500
611.99998513,-5.32172700
612.49998512,-6.49852300
612.99998511,-6.85839000
613.49998509,-6.33981300
613.99998508,-5.31803600
614.49998506,-3.87118600
614.99998505,-3.08009300
615.49998503,-3.03703200
615.99998502,-3.42458200
616.49998501,-4.23412900
616.99998499,-4.95940000
617.49998498,-5.48782000
617.99998496,-5.94611200
618.49998495,-6.24876900
618.99998494,-6.18233300
619.49998492,-5.72834600
619.99998491,-5.45398600
620.49998489,-5.36786400
620.99998488,-5.39800700
621.49998487,-5.49397100
621.99998485,-6.20263200
622.49998484,-7.37881400
622.99998482,-8.49163300
623.49998481,-9.42052100
623.99998479,-9.48880400
624.49998478,-8.72293300
624.99998477,-7.34375000
625.49998475,-5.49766200
625.99998474,-4.47034900
626.49998472,-4.32947800
626.99998471,-5.38693400
627.49998470,-7.52460600
627.99998468,-9.32148100
628.49998467,-10.57333000
628.99998465,-10.86737000
629.49998464,-10.12180000
629.99998462,-9.02005400
630.49998461,-7.70423200
630.99998460,-6.40748000
631.49998458,-5.32849400
631.99998457,-4.95201700
632.49998455,-5.30757900
632.99998454,-6.45853800
633.49998453,-8.25049200
633.99998451,-9.71210600
634.49998450,-10.63976000
634.99998448,-10.95042000
635.49998447,-10.59424000
635.99998446,-9.48695800
636.49998444,-7.75959600
636.99998443,-6.53973900
637.49998441,-5.95718500
637.99998440,-6.22908400
638.49998438,-7.34067400
638.99998437,-8.59621000
639.49998436,-9.82652600
639.99998434,-10.76587000
640.49998433,-11.28383000
640.99998431,-10.96272000
641.49998430,-9.82837000
641.99998429,-8.72969900
642.49998427,-7.81311500
642.99998426,-7.08784400
643.49998424,-6.66707700
643.99998423,-6.92544300
644.49998421,-7.82111200
644.99998420,-8.87610700
645.49998419,-9.96616600
645.99998417,-10.54318000
646.49998416,-10.53211000
646.99998414,-10.00492000
647.49998413,-9.02251400
647.99998412,-8.01181100
648.49998410,-7.07246500
648.99998409,-6.96481300
649.49998407,-7.69931100
649.99998406,-8.65280400
650.49998405,-9.72071700
650.99998403,-10.49274000
651.49998402,-10.83784000
651.99998400,-10.87660000
652.49998399,-10.57394000
652.99998397,-10.10396000
653.49998396,-9.53186400
653.99998395,-8.99913900
654.49998393,-8.55622500
654.99998392,-8.71001400
655.49998390,-9.43343900
655.99998389,-10.16671000
656.49998388,-10.81385000
656.99998386,-11.32751000
657.49998385,-11.61909000
657.99998383,-11.57296000
658.49998382,-11.20632000
658.99998380,-10.52780000
659.49998379,-9.63152000
659.99998378,-9.01021100
660.49998376,-8.76291800
660.99998375,-8.71370500
661.49998373,-8.87549100
661.99998372,-9.40022100
662.49998371,-10.22023000
662.99998369,-10.75603000
663.49998368,-10.96149000
663.99998366,-10.67852000
664.49998365,-9.90034400
664.99998364,-9.53740100
665.49998362,-9.64628400
665.99998361,-9.50356700
666.49998359,-9.15784900
666.99998358,-9.09202700
667.49998356,-9.28580200
667.99998355,-9.66535400
668.49998354,-10.20546000
668.99998352,-10.36479000
669.49998351,-10.12672000
669.99998349,-9.85482300
670.49998348,-9.56323800
670.99998347,-9.35716100
671.49998345,-9.27103800
671.99998344,-9.27103800
672.49998342,-9.35716100
672.99998341,-9.56877400
673.49998339,-9.88188800
673.99998338,-10.03629000
674.49998337,-10.00308000
674.99998335,-10.00062000
675.49998334,-10.02215000
675.99998332,-9.93171700
676.49998331,-9.76993100
676.99998330,-9.41006300
677.49998328,-8.91424700
677.99998327,-8.54330600
678.49998325,-8.33784400
678.99998324,-8.43688400
679.49998322,-8.81459100
679.99998321,-9.38299800
680.49998320,-10.05229000
680.99998318,-10.62069000
681.49998317,-10.99778000
681.99998315,-11.09436000
682.49998314,-10.87844000
682.99998313,-10.56225000
683.49998311,-10.18455000
683.99998310,-9.82221900
684.49998308,-9.53063400
684.99998307,-9.42913300
685.49998306,-9.53678600
685.99998304,-9.74040300
686.49998303,-9.99938500
686.99998301,-10.41646000
687.49998300,-10.93442000
687.99998298,-11.14358000
688.49998297,-11.01378000
688.99998296,-10.79724000
689.49998294,-10.50566000
689.99998293,-10.24176000
690.49998291,-10.03629000
690.99998290,-10.03937000
691.49998289,-10.25529000
691.99998287,-10.47798000
692.49998286,-10.70497000
692.99998284,-10.65022000
693.49998283,-10.31496000
693.99998281,-10.09781000
694.49998280,-10.01169000
694.99998279,-10.01722000
695.49998277,-10.12549000
695.99998276,-10.22392000
696.49998274,-10.28851000
696.99998273,-10.49766000
697.49998272,-10.82185000
697.99998270,-10.93135000
698.49998269,-10.82370000
698.99998267,-10.61454000
699.49998266,-10.33403000
699.99998265,-10.03752000
700.49998263,-9.80007300
700.99998262,-9.38545800
701.49998260,-8.85642100
701.99998259,-8.69709600
702.49998257,-8.92470500
702.99998256,-9.25381400
703.49998255,-9.67519700
703.99998253,-9.83144700
704.49998252,-9.70164800
704.99998250,-9.53125000
705.49998249,-9.31532900
705.99998248,-9.26550100
706.49998246,-9.39530000
706.99998245,-9.44758800
707.49998243,-9.41498600
707.99998242,-9.51094900
708.49998240,-9.70533900
708.99998239,-9.90895600
709.49998238,-10.08120000
709.99998236,-10.28728000
710.49998235,-10.49274000
710.99998233,-10.55057000
711.49998232,-10.46383000
711.99998231,-10.18639000
712.49998229,-9.72133400
712.99998228,-9.71887300
713.49998226,-10.17286000
713.99998225,-10.49459000
714.49998224,-10.65576000
714.99998222,-10.80155000
715.49998221,-10.88767000
715.99998219,-10.94550000
716.49998218,-10.97810000
716.99998216,-10.76956000
717.49998215,-10.34818000
717.99998214,-10.08428000
718.49998212,-10.00923000
718.99998211,-10.01415000
719.49998209,-10.11134000
719.99998208,-10.27682000
720.49998207,-10.50381000
720.99998205,-10.50074000
721.49998204,-10.26267000
721.99998202,-10.15563000
722.49998201,-10.18824000
722.99998199,-10.13902000
723.49998198,-10.01968000
723.99998197,-10.01415000
724.49998195,-10.11134000
724.99998194,-10.27128000
725.49998192,-10.47613000
725.99998191,-10.57763000
726.49998190,-10.55610000
726.99998188,-10.55856000
727.49998187,-10.59178000
727.99998185,-10.44045000
728.49998184,-10.13779000
728.99998182,-9.87450700
729.49998181,-9.68011800
729.99998180,-9.63582600
730.49998178,-9.76562400
730.99998177,-9.82344900
731.49998175,-9.81237700
731.99998174,-9.81791200
732.49998173,-9.85113100
732.99998171,-9.69980200
733.49998170,-9.39714400
733.99998168,-9.12524500
734.49998167,-8.89886800
734.99998166,-9.00036900
735.49998164,-9.41067900
735.99998163,-9.84190500
736.49998161,-10.26329000
736.99998160,-10.31250000
737.49998158,-9.97785400
737.99998157,-9.66166300
738.49998156,-9.40268100
738.99998154,-9.08403000
739.49998153,-8.73831200
739.99998151,-8.83735200
740.49998150,-9.35531400
740.99998149,-9.88004400
741.49998147,-10.34449000
741.99998146,-10.69574000
742.49998144,-10.85753000
742.99998143,-10.96764000
743.49998141,-11.02178000
743.99998140,-10.65637000
744.49998139,-9.92187400
744.99998137,-9.44635800
745.49998136,-9.28518700
745.99998134,-9.29318400
746.49998133,-9.48757400
746.99998132,-9.80622500
747.49998130,-10.21654000
747.99998129,-10.43122000
748.49998127,-10.43122000
748.99998126,-10.21654000
749.49998125,-9.80622500
749.99998123,-9.47896200
750.49998122,-9.25196800
750.99998120,-9.41437000
751.49998119,-9.95447800
751.99998117,-10.32849000
752.49998116,-10.50074000
752.99998115,-10.54749000
753.49998113,-10.45029000
753.99998112,-10.24176000
754.49998110,-9.95017100
754.99998109,-9.68626900
755.49998108,-9.48080600
755.99998106,-9.47834600
756.49998105,-9.67273600
756.99998103,-9.97785400
757.49998102,-10.33341000
757.99998100,-10.80340000
758.49998099,-11.32136000
758.99998098,-11.48376000
759.49998096,-11.27830000
759.99998095,-10.86060000
760.49998093,-10.28912000
760.99998092,-9.71518100
761.49998091,-9.21875000
761.99998089,-9.07049700
762.49998088,-9.30794700
762.99998086,-9.57123500
763.49998085,-9.83021600
763.99998084,-10.19870000
764.49998082,-10.63054000
764.99998081,-10.68036000
765.49998079,-10.33403000
765.99998078,-10.06521000
766.49998076,-9.89234600
766.99998075,-9.74409400
767.49998074,-9.65797200
767.99998072,-9.60568300
768.49998071,-9.59461100
768.99998069,-9.69365100
769.49998068,-9.87696700
769.99998067,-10.14333000
770.49998065,-10.46752000
770.99998064,-10.51427000
771.49998062,-10.26575000
771.99998061,-10.15871000
772.49998059,-10.20177000
772.99998058,-10.10027000
773.49998057,-9.87327700
773.99998055,-9.81545200
774.49998054,-9.92372000
774.99998052,-10.09166000
775.49998051,-10.31865000
775.99998050,-10.32419000
776.49998048,-10.11872000
776.99998047,-9.85789800
777.49998045,-9.57677100
777.99998044,-9.31594500
778.49998043,-9.11109700
778.99998041,-9.11109700
779.49998040,-9.31594500
779.99998038,-9.58538300
780.49998037,-9.89849900
780.99998035,-10.00308000
781.49998034,-9.88435100
781.99998033,-9.71641300
782.49998031,-9.50049200
782.99998030,-9.45066500
783.49998028,-9.58046200
783.99998027,-9.63582600
784.49998026,-9.61368100
784.99998024,-9.65489600
785.49998023,-9.73056000
785.99998021,-9.94217400
786.49998020,-10.26636000
786.99998018,-10.36479000
787.49998017,-10.21346000
787.99998016,-10.21038000
788.49998014,-10.35125000
788.99998013,-10.29650000
789.49998011,-10.04737000
789.99998010,-10.04183000
790.49998009,-10.26882000
790.99998007,-10.43984000
791.49998006,-10.55856000
791.99998004,-10.44599000
792.49998003,-10.09966000
792.99998001,-9.99815500
793.49998000,-10.16056000
793.99997999,-10.11380000
794.49997997,-9.87635300
794.99997996,-9.81852800
795.49997994,-9.93725300
795.99997993,-10.04983000
796.49997992,-10.15810000
796.99997990,-10.15810000
797.49997989,-10.04983000
797.99997987,-9.94279000
798.49997986,-9.84559500
798.99997985,-9.80191900
799.49997983,-9.83452200
799.99997982,-9.73302200
800.49997980,-9.51648500
800.99997979,-9.41252300
801.49997977,-9.43405500
801.99997976,-9.43713000
802.49997975,-9.42605800
802.99997973,-9.47834600
803.49997972,-9.58599900
803.99997970,-9.64136300
804.49997969,-9.64136300
804.99997968,-9.58353800
805.49997966,-9.46419700
805.99997965,-9.46727400
806.49997963,-9.59707200
806.99997962,-9.60260800
807.49997960,-9.49434000
807.99997959,-9.38176600
808.49997958,-9.26304100
808.99997956,-9.31779000
809.49997955,-9.54478300
809.99997953,-9.64382400
810.49997952,-9.58907400
810.99997951,-9.73794300
811.49997949,-10.05106000
811.99997948,-10.26513000
812.49997946,-10.36233000
812.99997945,-10.30758000
813.49997944,-10.10212000
813.99997942,-9.88496500
814.49997941,-9.66904400
814.99997939,-9.66904400
815.49997938,-9.88496500
815.99997936,-10.09966000
816.49997935,-10.29404000
816.99997934,-10.38693000
817.49997932,-10.34387000
817.99997931,-10.44537000
818.49997929,-10.67237000
818.99997928,-10.72158000
819.49997927,-10.58071000
819.99997925,-10.58071000
820.49997924,-10.72158000
820.99997922,-10.67237000
821.49997921,-10.44537000
821.99997919,-10.33526000
822.49997918,-10.34633000
822.99997917,-10.40969000
823.49997915,-10.53949000
823.99997914,-10.48720000
824.49997912,-10.26021000
824.99997911,-10.15317000
825.49997910,-10.17470000
825.99997908,-10.18024000
826.49997907,-10.18024000
826.99997905,-10.17224000
827.49997904,-10.13902000
827.99997903,-10.30389000
828.49997901,-10.66129000
828.99997900,-10.66375000
829.49997898,-10.31804000
829.99997897,-10.10089000
830.49997895,-10.02522000
830.99997894,-9.98708100
831.49997893,-10.01968000
831.99997891,-9.91818300
832.49997890,-9.70164800
832.99997888,-9.59461100
833.49997887,-9.60568300
833.99997886,-9.66350800
834.49997884,-9.77116100
834.99997883,-9.82652600
835.49997881,-9.82652600
835.99997880,-9.77669800
836.49997878,-9.69057600
836.99997877,-9.52817300
837.49997876,-9.30118100
837.99997874,-9.30118100
838.49997873,-9.52817300
838.99997871,-9.69611200
839.49997870,-9.80437900
839.99997869,-9.74655400
840.49997867,-9.51956200
840.99997866,-9.40698800
841.49997864,-9.40698800
841.99997863,-9.51094900
842.49997861,-9.70533900
842.99997860,-9.91141600
843.49997859,-10.09473000
843.99997857,-10.24914000
844.49997856,-10.34633000
844.99997854,-10.34326000
845.49997853,-10.23499000
845.99997852,-10.12549000
846.49997850,-10.01722000
846.99997849,-10.01968000
847.49997847,-10.13902000
847.99997846,-10.19377000
848.49997845,-10.18270000
848.99997843,-10.17224000
849.49997842,-10.13902000
849.99997840,-10.29835000
850.49997839,-10.63361000
850.99997837,-10.74065000
851.49997836,-10.61085000
851.99997835,-10.50135000
852.49997833,-10.41462000
852.99997832,-10.31619000
853.49997830,-10.22945000
853.99997829,-10.11996000
854.49997828,-9.99015700
854.99997826,-10.09966000
855.49997825,-10.44599000
855.99997823,-10.55856000
856.49997822,-10.43984000
856.99997820,-10.27744000
857.49997819,-10.08305000
857.99997818,-9.92618100
858.49997816,-9.82898600
858.99997815,-9.82898600
859.49997813,-9.92618100
859.99997812,-10.09412000
860.49997811,-10.33218000
860.99997809,-10.27682000
861.49997808,-9.93110200
861.99997806,-9.77177600
862.49997805,-9.81545200
862.99997804,-9.77423700
863.49997802,-9.67704200
863.99997801,-9.57246500
864.49997799,-9.47527000
864.99997798,-9.42298100
865.49997796,-9.42298100
865.99997795,-9.47834600
866.49997794,-9.58599900
866.99997792,-9.63582600
867.49997791,-9.61368100
867.99997789,-9.67150600
868.49997788,-9.81237700
868.99997787,-9.70533900
869.49997785,-9.35900500
869.99997784,-9.24397100
870.49997782,-9.35162400
870.99997781,-9.56877400
871.49997779,-9.88188800
871.99997778,-10.04183000
872.49997777,-10.03076000
872.99997775,-9.92064400
873.49997774,-9.71579600
873.99997772,-9.55032000
874.49997771,-9.43159500
874.99997770,-9.53617100
875.49997768,-9.84928600
875.99997767,-10.11872000
876.49997765,-10.32419000
876.99997764,-10.31311000
877.49997763,-10.06398000
877.99997761,-10.00923000
878.49997760,-10.15010000
878.99997758,-10.16117000
879.49997757,-10.06398000
879.99997755,-9.89849900
880.49997754,-9.67150600
880.99997753,-9.67150600
881.49997751,-9.89849900
881.99997750,-10.05536000
882.49997748,-10.11996000
882.99997747,-10.27374000
883.49997746,-10.48967000
883.99997744,-10.54749000
884.49997743,-10.45029000
884.99997741,-10.23314000
885.49997740,-9.90895600
885.99997738,-9.79945900
886.49997737,-9.90711100
886.99997736,-10.12734000
887.49997734,-10.45152000
887.99997733,-10.55856000
888.49997731,-10.43984000
888.99997730,-10.27744000
889.49997729,-10.08305000
889.99997727,-9.93171700
890.49997726,-9.85666800
890.99997724,-9.75209100
891.49997723,-9.63336600
891.99997722,-9.69119100
892.49997720,-9.92864100
892.99997719,-9.98400600
893.49997717,-9.85420700
893.99997716,-9.79084600
894.49997714,-9.77977300
894.99997713,-9.89542300
895.49997712,-10.14395000
895.99997710,-10.09719000
896.49997709,-9.77300600
896.99997707,-9.49864600
897.49997706,-9.28211000
897.99997705,-9.33993500
898.49997703,-9.67519700
898.99997702,-9.88927200
899.49997700,-9.96493600
899.99997699,-10.01415000
900.49997697,-10.02522000
900.99997696,-9.91510800
901.49997695,-9.68811500
901.99997693,-9.63336600
902.49997692,-9.75209100
