Time,Channel B
(ns),(mV)

-100.99999470,-9.63582600
-100.49999472,-9.76562400
-99.99999473,-9.82344900
-99.49999474,-9.81237700
-98.99999476,-9.80745600
-98.49999477,-9.79638200
-97.99999479,-9.84867000
-97.49999480,-9.95632300
-96.99999481,-10.00861000
-96.49999483,-9.99753900
-95.99999484,-10.00062000
-95.49999486,-10.02215000
-94.99999487,-9.91818300
-94.49999488,-9.70164800
-93.99999490,-9.59768700
-93.49999491,-9.61921700
-92.99999493,-9.62229300
-92.49999494,-9.61122000
-91.99999496,-9.66043300
-91.49999497,-9.75762700
-90.99999498,-9.86220500
-90.49999500,-9.95939900
-89.99999501,-10.01169000
-89.49999503,-10.01169000
-88.99999504,-9.95632300
-88.49999505,-9.84867000
-87.99999507,-9.79330700
-87.49999508,-9.79330700
-86.99999510,-9.85420700
-86.49999511,-9.98400600
-85.99999513,-9.93171700
-85.49999514,-9.70472400
-84.99999515,-9.59215000
-84.49999517,-9.59215000
-83.99999518,-9.70164800
-83.49999520,-9.91818300
-82.99999521,-10.02215000
-82.49999522,-10.00062000
-81.99999524,-9.99753900
-81.49999525,-10.00861000
-80.99999527,-9.95632300
-80.49999528,-9.84867000
-79.99999529,-9.79330700
-79.49999531,-9.79330700
-78.99999532,-9.85113100
-78.49999534,-9.97047100
-77.99999535,-9.97047100
-77.49999537,-9.85113100
-76.99999538,-9.79638200
-76.49999539,-9.80745600
-75.99999541,-9.80991600
-75.49999542,-9.80991600
-74.99999544,-9.80745600
-74.49999545,-9.79638200
-73.99999546,-9.85420700
-73.49999548,-9.98400600
-72.99999549,-9.92864100
-72.49999551,-9.69119100
-71.99999552,-9.63029000
-71.49999554,-9.73855800
-70.99999555,-9.90895600
-70.49999556,-10.14702000
-69.99999558,-10.09473000
-69.49999559,-9.75947300
-68.99999561,-9.53986200
-68.49999562,-9.44266700
-67.99999563,-9.50049200
-67.49999565,-9.71641300
-66.99999566,-9.87573700
-66.49999568,-9.96186000
-65.99999569,-10.00861000
-65.49999571,-9.99753900
-64.99999572,-9.99507800
-64.49999573,-9.99507800
-63.99999575,-9.99261800
-63.49999576,-9.98154500
-62.99999578,-10.04183000
-62.49999579,-10.18270000
-61.99999580,-10.07566000
-61.49999582,-9.72933000
-60.99999583,-9.62229300
-60.49999585,-9.76316400
-59.99999586,-9.81791200
-59.49999587,-9.78531000
-58.99999589,-9.88988600
-58.49999590,-10.11688000
-57.99999592,-10.17470000
-57.49999593,-10.06644000
-56.99999595,-9.90157400
-56.49999596,-9.68565500
-55.99999597,-9.63029000
-55.49999599,-9.73855800
-54.99999600,-9.90342000
-54.49999602,-10.11934000
-53.99999603,-10.16917000
-53.49999604,-10.03937000
-52.99999606,-9.98154500
-52.49999607,-9.99261800
-51.99999609,-9.99507800
-51.49999610,-9.99507800
-50.99999612,-9.99753900
-50.49999613,-10.00861000
-49.99999614,-9.95939900
-49.49999616,-9.86220500
-48.99999617,-9.75209100
-48.49999619,-9.63336600
-47.99999620,-9.68811500
-47.49999621,-9.91510800
-46.99999623,-10.02522000
-46.49999624,-10.01415000
-45.99999626,-9.95632300
-45.49999627,-9.84867000
-44.99999628,-9.80191900
-44.49999630,-9.83452200
-43.99999631,-9.72994500
-43.49999633,-9.50295300
-42.99999634,-9.44820400
-42.49999636,-9.56692900
-41.99999637,-9.67950200
-41.49999638,-9.78777000
-40.99999640,-9.78223300
-40.49999641,-9.65243500
-39.99999643,-9.64936000
-39.49999644,-9.76870100
-38.99999645,-9.82652600
-38.49999647,-9.82652600
-37.99999648,-9.77116100
-37.49999650,-9.66350800
-36.99999651,-9.60568300
-36.49999653,-9.59461100
-35.99999654,-9.70472400
-35.49999655,-9.93171700
-34.99999657,-9.98092900
-34.49999658,-9.84005800
-33.99999660,-9.83452200
-33.49999661,-9.95386200
-32.99999662,-10.00861000
-32.49999664,-9.99753900
-31.99999665,-9.99261800
-31.49999667,-9.98154500
-30.99999668,-10.03629000
-30.49999669,-10.15563000
-29.99999671,-10.15810000
-29.49999672,-10.04983000
-28.99999674,-9.94279000
-28.49999675,-9.84559500
-27.99999677,-9.79638200
-27.49999678,-9.80745600
-26.99999679,-9.80745600
-26.49999681,-9.79638200
-25.99999682,-9.85113100
-25.49999684,-9.97047100
-24.99999685,-9.97047100
-24.49999686,-9.85113100
-23.99999688,-9.79330700
-23.49999689,-9.79330700
-22.99999691,-9.85113100
-22.49999692,-9.97047100
-21.99999694,-9.97293300
-21.49999695,-9.86466500
-20.99999696,-9.75516700
-20.49999698,-9.64689900
-19.99999699,-9.64689900
-19.49999701,-9.75516700
-18.99999702,-9.86220500
-18.49999703,-9.95939900
-17.99999705,-10.01415000
-17.49999706,-10.02522000
-16.99999708,-9.91818300
-16.49999709,-9.70164800
-15.99999710,-9.59215000
-15.49999712,-9.59215000
-14.99999713,-9.70164800
-14.49999715,-9.91818300
-13.99999716,-10.02215000
-13.49999718,-10.00062000
-12.99999719,-9.99753900
-12.49999720,-10.00861000
-11.99999722,-9.95939900
-11.49999723,-9.86220500
-10.99999725,-9.75516700
-10.49999726,-9.64689900
-9.99999727,-9.65243500
-9.49999729,-9.78223300
-8.99999730,-9.78223300
-8.49999732,-9.65243500
-7.99999733,-9.64689900
-7.49999735,-9.75516700
-6.99999736,-9.86466500
-6.49999737,-9.97293300
-5.99999739,-9.97293300
-5.49999740,-9.86466500
-4.99999742,-9.75516700
-4.49999743,-9.64689900
-3.99999744,-9.64936000
-3.49999746,-9.76870100
-2.99999747,-9.82098900
-2.49999749,-9.79884200
-1.99999750,-9.85113100
-1.49999752,-9.97047100
-0.99999753,-9.97047100
-0.49999754,-9.85113100
0.00000244,-9.79330700
0.50000243,-9.79330700
1.00000241,-9.84867000
1.50000240,-9.95632300
2.00000239,-10.00861000
2.50000237,-9.99753900
3.00000236,-9.99753900
3.50000234,-10.00861000
4.00000233,-9.95939900
4.50000232,-9.86220500
5.00000230,-9.75516700
5.50000229,-9.64689900
6.00000227,-9.65243500
6.50000226,-9.78223300
7.00000224,-9.78531000
7.50000223,-9.66596900
8.00000222,-9.60814500
8.50000220,-9.60814500
9.00000219,-9.66043300
9.50000217,-9.75762700
10.00000216,-9.86220500
10.50000215,-9.95939900
11.00000213,-10.00861000
11.50000212,-9.99753900
12.00000210,-9.99507800
12.50000209,-9.99507800
13.00000207,-9.99507800
13.50000206,-9.99507800
14.00000205,-9.99753900
14.50000203,-10.00861000
15.00000202,-9.95386200
15.50000200,-9.83452200
16.00000199,-9.83452200
16.50000198,-9.95386200
17.00000196,-10.01415000
17.50000195,-10.02522000
18.00000193,-9.91264700
18.50000192,-9.67458200
19.00000191,-9.67704200
19.50000189,-9.92618100
20.00000188,-9.98400600
20.50000186,-9.85420700
21.00000185,-9.79330700
21.50000183,-9.79330700
22.00000182,-9.85420700
22.50000181,-9.98400600
23.00000179,-9.92864100
23.50000178,-9.69119100
24.00000176,-9.63336600
24.50000175,-9.75209100
25.00000174,-9.86466500
25.50000172,-9.97293300
26.00000171,-9.96739700
26.50000169,-9.83759800
27.00000168,-9.83452200
27.50000166,-9.95386200
28.00000165,-10.00861000
28.50000164,-9.99753900
29.00000162,-9.99507800
29.50000161,-9.99507800
30.00000159,-9.99753900
30.50000158,-10.00861000
31.00000157,-9.95939900
31.50000155,-9.86220500
32.00000154,-9.75209100
32.50000152,-9.63336600
33.00000151,-9.68811500
33.50000150,-9.91510800
34.00000148,-10.02215000
34.50000147,-10.00062000
35.00000145,-9.99753900
35.50000144,-10.00861000
36.00000142,-9.95386200
36.50000141,-9.83452200
37.00000140,-9.83452200
37.50000138,-9.95386200
38.00000137,-10.00861000
38.50000135,-9.99753900
39.00000134,-9.99507800
39.50000133,-9.99507800
40.00000131,-9.99507800
40.50000130,-9.99507800
41.00000128,-9.99753900
41.50000127,-10.00861000
42.00000125,-9.95939900
42.50000124,-9.86220500
43.00000123,-9.75516700
43.50000121,-9.64689900
44.00000120,-9.64689900
44.50000118,-9.75516700
45.00000117,-9.86220500
45.50000116,-9.95939900
46.00000114,-10.01415000
46.50000113,-10.02522000
47.00000111,-9.91510800
47.50000110,-9.68811500
48.00000108,-9.63336600
48.50000107,-9.75209100
49.00000106,-9.86774200
49.50000104,-9.98646600
50.00000103,-9.92618100
50.50000101,-9.67704200
51.00000100,-9.67458200
51.50000099,-9.91264700
52.00000097,-10.02215000
52.50000096,-10.00062000
53.00000094,-9.99507800
53.50000093,-9.99507800
54.00000092,-10.00062000
54.50000090,-10.02215000
55.00000089,-9.91818300
55.50000087,-9.70164800
56.00000086,-9.58907400
56.50000084,-9.57800100
57.00000083,-9.74286400
57.50000082,-10.07812000
58.00000080,-10.18270000
58.50000079,-10.04183000
59.00000077,-9.98154500
59.50000076,-9.99261800
60.00000075,-9.99507800
60.50000073,-9.99507800
61.00000072,-9.99753900
61.50000070,-10.00861000
62.00000069,-9.95939900
62.50000067,-9.86220500
63.00000066,-9.75516700
63.50000065,-9.64689900
64.00000063,-9.64689900
64.50000062,-9.75516700
65.00000060,-9.86774200
65.50000059,-9.98646600
66.00000058,-9.93171700
66.50000056,-9.70472400
67.00000055,-9.59768700
67.50000053,-9.61921700
68.00000052,-9.62229300
68.50000051,-9.61122000
69.00000049,-9.66043300
69.50000048,-9.75762700
70.00000046,-9.87020200
70.50000045,-9.99999900
71.00000043,-9.89296200
71.50000042,-9.55770100
72.00000041,-9.39037900
72.50000039,-9.39037900
73.00000038,-9.55770100
73.50000036,-9.89296200
74.00000035,-9.99753900
74.50000034,-9.85666800
75.00000032,-9.79638200
75.50000031,-9.80745600
76.00000029,-9.81237700
76.50000028,-9.82344900
77.00000026,-9.76870100
77.50000025,-9.64936000
78.00000024,-9.64936000
78.50000022,-9.76870100
79.00000021,-9.82344900
79.50000019,-9.81237700
80.00000018,-9.81237700
80.50000017,-9.82344900
81.00000015,-9.77116100
81.50000014,-9.66350800
82.00000012,-9.60814500
82.50000011,-9.60814500
83.00000010,-9.66043300
83.50000008,-9.75762700
84.00000007,-9.86220500
84.50000005,-9.95939900
85.00000004,-10.00615000
85.50000002,-9.98400600
86.00000001,-10.03937000
86.50000000,-10.16917000
86.99999998,-10.11688000
87.49999997,-9.88988600
87.99999995,-9.77731200
88.49999994,-9.77731200
88.99999993,-9.88988600
89.49999991,-10.11688000
89.99999990,-10.17163000
90.49999988,-10.05290000
90.99999987,-9.94279000
91.49999985,-9.84559500
91.99999984,-9.79638200
92.49999983,-9.80745600
92.99999981,-9.80745600
93.49999980,-9.79638200
93.99999978,-9.85420700
94.49999977,-9.98400600
94.99999976,-9.92864100
95.49999974,-9.69119100
95.99999973,-9.63336600
96.49999971,-9.75209100
96.99999970,-9.86220500
97.49999969,-9.95939900
97.99999967,-10.00861000
98.49999966,-9.99753900
98.99999964,-9.99753900
99.49999963,-10.00861000
99.99999961,-9.95386200
100.49999960,-9.83452200
100.99999959,-9.83452200
101.49999957,-9.95386200
101.99999956,-10.01415000
102.49999954,-10.02522000
102.99999953,-9.91510800
103.49999952,-9.68811500
103.99999950,-9.63336600
104.49999949,-9.75209100
104.99999947,-9.86220500
105.49999946,-9.95939900
105.99999944,-10.00861000
106.49999943,-9.99753900
106.99999942,-9.99507800
107.49999940,-9.99507800
107.99999939,-9.99753900
108.49999937,-10.00861000
108.99999936,-9.95632300
109.49999935,-9.84867000
109.99999933,-9.79638200
110.49999932,-9.80745600
110.99999930,-9.80991600
111.49999929,-9.80991600
111.99999927,-9.80745600
112.49999926,-9.79638200
112.99999925,-9.85420700
113.49999923,-9.98400600
113.99999922,-9.92618100
114.49999920,-9.67704200
114.99999919,-9.67458200
115.49999918,-9.91264700
115.99999916,-10.02215000
116.49999915,-10.00062000
116.99999913,-9.99507800
117.49999912,-9.99507800
117.99999911,-9.99753900
118.49999909,-10.00861000
118.99999908,-9.95939900
119.49999906,-9.86220500
119.99999905,-9.75209100
120.49999903,-9.63336600
120.99999902,-9.69119100
121.49999901,-9.92864100
121.99999899,-9.98646600
122.49999898,-9.86774200
122.99999896,-9.75209100
123.49999895,-9.63336600
123.99999894,-9.68811500
124.49999892,-9.91510800
124.99999891,-10.02522000
125.49999889,-10.01415000
125.99999888,-9.95939900
126.49999886,-9.86220500
126.99999885,-9.75762700
127.49999884,-9.66043300
127.99999882,-9.60568300
128.49999881,-9.59461100
128.99999879,-9.70164800
129.49999878,-9.91818300
129.99999877,-10.02215000
130.49999875,-10.00062000
130.99999874,-9.99753900
131.49999872,-10.00861000
131.99999871,-9.95939900
132.49999870,-9.86220500
132.99999868,-9.75516700
133.49999867,-9.64689900
133.99999865,-9.65243500
134.49999864,-9.78223300
134.99999862,-9.78223300
135.49999861,-9.65243500
135.99999860,-9.64689900
136.49999858,-9.75516700
136.99999857,-9.86466500
137.49999855,-9.97293300
137.99999854,-9.97047100
138.49999853,-9.85113100
138.99999851,-9.79330700
139.49999850,-9.79330700
139.99999848,-9.84867000
140.49999847,-9.95632300
140.99999845,-10.00615000
141.49999844,-9.98400600
141.99999843,-10.04183000
142.49999841,-10.18270000
142.99999840,-10.07259000
143.49999838,-9.71579600
143.99999837,-9.66104800
144.49999836,-9.90957200
144.99999834,-10.02768000
145.49999833,-10.02768000
145.99999831,-9.91264700
146.49999830,-9.67458200
146.99999829,-9.68011800
147.49999827,-9.93971300
147.99999826,-9.94279000
148.49999824,-9.69365100
148.99999823,-9.63029000
149.49999821,-9.73855800
149.99999820,-9.90649500
150.49999819,-10.13349000
150.99999817,-10.13041000
151.49999816,-9.89234600
151.99999814,-9.77977300
152.49999813,-9.79084600
152.99999812,-9.85113100
153.49999810,-9.97047100
153.99999809,-9.97047100
154.49999807,-9.85113100
154.99999806,-9.79638200
155.49999804,-9.80745600
155.99999803,-9.80991600
156.49999802,-9.80991600
156.99999800,-9.80991600
157.49999799,-9.80991600
157.99999797,-9.80991600
158.49999796,-9.80991600
158.99999795,-9.80991600
159.49999793,-9.80991600
159.99999792,-9.80437900
160.49999790,-9.78284900
160.99999789,-9.89542300
161.49999787,-10.14395000
161.99999786,-10.08920000
162.49999785,-9.73240600
162.99999783,-9.62783000
163.49999782,-9.79023100
163.99999780,-9.74101800
164.49999779,-9.49187900
164.99999778,-9.48941900
165.49999776,-9.72748500
165.99999775,-9.84005800
166.49999773,-9.82898600
166.99999772,-9.76870100
167.49999771,-9.64936000
167.99999769,-9.64382400
168.49999768,-9.74101800
168.99999766,-9.90342000
169.49999765,-10.11934000
169.99999763,-10.17470000
170.49999762,-10.06644000
170.99999761,-9.89849900
171.49999759,-9.67150600
171.99999758,-9.67458200
172.49999756,-9.91264700
172.99999755,-10.02215000
173.49999754,-10.00062000
173.99999752,-9.99753900
174.49999751,-10.00861000
174.99999749,-9.95632300
175.49999748,-9.84867000
175.99999746,-9.79330700
176.49999745,-9.79330700
176.99999744,-9.85420700
177.49999742,-9.98400600
177.99999741,-9.93171700
178.49999739,-9.70472400
178.99999738,-9.59461100
179.49999737,-9.60568300
179.99999735,-9.66043300
180.49999734,-9.75762700
180.99999732,-9.85666800
181.49999731,-9.93171700
181.99999730,-10.09412000
182.49999728,-10.33218000
182.99999727,-10.27682000
183.49999725,-9.93110200
183.99999724,-9.76624000
184.49999722,-9.78777000
184.99999721,-9.85113100
185.49999720,-9.97047100
185.99999718,-9.96739700
186.49999717,-9.83759800
186.99999715,-9.83452200
187.49999714,-9.95386200
187.99999713,-10.00861000
188.49999711,-9.99753900
188.99999710,-9.99507800
189.49999708,-9.99507800
189.99999707,-10.00062000
190.49999705,-10.02215000
190.99999704,-9.91510800
191.49999703,-9.68811500
191.99999701,-9.63029000
192.49999700,-9.73855800
192.99999698,-9.90649500
193.49999697,-10.13349000
193.99999696,-10.13349000
194.49999694,-9.90649500
194.99999693,-9.74409400
195.49999691,-9.65797200
195.99999690,-9.60814500
196.49999689,-9.60814500
196.99999687,-9.66043300
197.49999686,-9.75762700
197.99999684,-9.86774200
198.49999683,-9.98646600
198.99999681,-9.92864100
199.49999680,-9.69119100
199.99999679,-9.63336600
200.49999677,-9.75209100
200.99999676,-9.86220500
201.49999674,-9.95939900
201.99999673,-10.01169000
202.49999672,-10.01169000
202.99999670,-9.95632300
203.49999669,-9.84867000
203.99999667,-9.79330700
204.49999666,-9.79330700
204.99999664,-9.84867000
205.49999663,-9.95632300
205.99999662,-10.01169000
206.49999660,-10.01169000
206.99999659,-9.95632300
207.49999657,-9.84867000
207.99999656,-9.79330700
208.49999655,-9.79330700
208.99999653,-9.84867000
209.49999652,-9.95632300
209.99999650,-10.01169000
210.49999649,-10.01169000
210.99999648,-9.95632300
211.49999646,-9.84867000
211.99999645,-9.79638200
212.49999643,-9.80745600
212.99999642,-9.80991600
213.49999640,-9.80991600
213.99999639,-9.80991600
214.49999638,-9.80991600
214.99999636,-9.80991600
215.49999635,-9.80991600
215.99999633,-9.80745600
216.49999632,-9.79638200
216.99999631,-9.85113100
217.49999629,-9.97047100
217.99999628,-9.96739700
218.49999626,-9.83759800
218.99999625,-9.83759800
219.49999623,-9.96739700
219.99999622,-9.96739700
220.49999621,-9.83759800
220.99999619,-9.83759800
221.49999618,-9.96739700
221.99999616,-9.97293300
222.49999615,-9.86466500
222.99999614,-9.75516700
223.49999612,-9.64689900
223.99999611,-9.64689900
224.49999609,-9.75516700
224.99999608,-9.85912800
225.49999606,-9.94586600
225.99999605,-10.04983000
226.49999604,-10.15810000
226.99999602,-10.15810000
227.49999601,-10.04983000
227.99999599,-9.94586600
228.49999598,-9.85912800
228.99999597,-9.75516700
229.49999595,-9.64689900
229.99999594,-9.65243500
230.49999592,-9.78223300
230.99999591,-9.78223300
231.49999590,-9.65243500
231.99999588,-9.64689900
232.49999587,-9.75516700
232.99999585,-9.86774200
233.49999584,-9.98646600
233.99999582,-9.93171700
234.49999581,-9.70472400
234.99999580,-9.59461100
235.49999578,-9.60568300
235.99999577,-9.66043300
236.49999575,-9.75762700
236.99999574,-9.86220500
237.49999573,-9.95939900
237.99999571,-10.01415000
238.49999570,-10.02522000
238.99999568,-9.91510800
239.49999567,-9.68811500
239.99999565,-9.63582600
240.49999564,-9.76562400
240.99999563,-9.82652600
241.49999561,-9.82652600
241.99999560,-9.76562400
242.49999558,-9.63582600
242.99999557,-9.68811500
243.49999556,-9.91510800
243.99999554,-10.02522000
244.49999553,-10.01415000
244.99999551,-9.95386200
245.49999550,-9.83452200
245.99999549,-9.84005800
246.49999547,-9.98092900
246.99999546,-9.92864100
247.49999544,-9.69119100
247.99999543,-9.63336600
248.49999541,-9.75209100
248.99999540,-9.86466500
249.49999539,-9.97293300
249.99999537,-9.97047100
250.49999536,-9.85113100
250.99999534,-9.79638200
251.49999533,-9.80745600
251.99999532,-9.80745600
252.49999530,-9.79638200
252.99999529,-9.84559500
253.49999527,-9.94279000
253.99999526,-10.05290000
254.49999524,-10.17163000
254.99999523,-10.11688000
255.49999522,-9.88988600
255.99999520,-9.77977300
256.49999519,-9.79084600
256.99999517,-9.85113100
257.49999516,-9.97047100
257.99999515,-9.97293300
258.49999513,-9.86466500
258.99999512,-9.76070300
259.49999510,-9.67396600
259.99999509,-9.56446800
260.49999508,-9.43466900
260.99999506,-9.54170700
261.49999505,-9.87696700
261.99999503,-10.04183000
262.49999502,-10.03076000
262.99999500,-9.91510800
263.49999499,-9.68811500
263.99999498,-9.63890200
264.49999496,-9.77977300
264.99999495,-9.78531000
265.49999493,-9.66596900
265.99999492,-9.61122000
266.49999491,-9.62229300
266.99999489,-9.62229300
267.49999488,-9.61122000
267.99999486,-9.66596900
268.49999485,-9.78531000
268.99999483,-9.77977300
269.49999482,-9.63890200
269.99999481,-9.69365100
270.49999479,-9.94279000
270.99999478,-9.94279000
271.49999476,-9.69365100
271.99999475,-9.63336600
272.49999474,-9.75209100
272.99999472,-9.86466500
273.49999471,-9.97293300
273.99999469,-9.97047100
274.49999468,-9.85113100
274.99999466,-9.79884200
275.49999465,-9.82098900
275.99999464,-9.76562400
276.49999462,-9.63582600
276.99999461,-9.68811500
277.49999459,-9.91510800
277.99999458,-10.02522000
278.49999457,-10.01415000
278.99999455,-9.95632300
279.49999454,-9.84867000
279.99999452,-9.79330700
280.49999451,-9.79330700
280.99999450,-9.85420700
281.49999448,-9.98400600
281.99999447,-9.93171700
282.49999445,-9.70472400
282.99999444,-9.59215000
283.49999442,-9.59215000
283.99999441,-9.70164800
284.49999440,-9.91818300
284.99999438,-10.02522000
285.49999437,-10.01415000
285.99999435,-9.95939900
286.49999434,-9.86220500
286.99999433,-9.75209100
287.49999431,-9.63336600
287.99999430,-9.68565500
288.49999428,-9.90157400
288.99999427,-10.06951000
289.49999425,-10.18824000
289.99999424,-10.07566000
290.49999423,-9.72933000
290.99999421,-9.62783000
291.49999420,-9.79023100
291.99999418,-9.74101800
292.49999417,-9.49187900
292.99999416,-9.48634300
293.49999414,-9.71333600
293.99999413,-9.87573700
294.49999411,-9.96186000
294.99999410,-10.01169000
295.49999409,-10.01169000
295.99999407,-9.95386200
296.49999406,-9.83452200
296.99999404,-9.83759800
297.49999403,-9.96739700
297.99999401,-9.97047100
298.49999400,-9.85113100
298.99999399,-9.79638200
299.49999397,-9.80745600
299.99999396,-9.80745600
300.49999394,-9.79638200
300.99999393,-9.84867000
301.49999392,-9.95632300
301.99999390,-10.00861000
302.49999389,-9.99753900
302.99999387,-9.99753900
303.49999386,-10.00861000
303.99999384,-9.95386200
304.49999383,-9.83452200
304.99999382,-9.84005800
305.49999380,-9.98092900
305.99999379,-9.93171700
306.49999377,-9.70472400
306.99999376,-9.59768700
307.49999375,-9.61921700
307.99999373,-9.62229300
308.49999372,-9.61122000
308.99999370,-9.66350800
309.49999369,-9.77116100
309.99999368,-9.82652600
310.49999366,-9.82652600
310.99999365,-9.76870100
311.49999363,-9.64936000
311.99999362,-9.64689900
312.49999360,-9.75516700
312.99999359,-9.86774200
313.49999358,-9.98646600
313.99999356,-9.93171700
314.49999355,-9.70472400
314.99999353,-9.59461100
315.49999352,-9.60568300
315.99999351,-9.66043300
316.49999349,-9.75762700
316.99999348,-9.86220500
317.49999346,-9.95939900
317.99999345,-10.01169000
318.49999343,-10.01169000
318.99999342,-9.95386200
319.49999341,-9.83452200
319.99999339,-9.83206100
320.49999338,-9.94033000
320.99999336,-10.04983000
321.49999335,-10.15810000
321.99999334,-10.15810000
322.49999332,-10.04983000
322.99999331,-9.94279000
323.49999329,-9.84559500
323.99999328,-9.79884200
324.49999327,-9.82098900
324.99999325,-9.76870100
325.49999324,-9.64936000
325.99999322,-9.65489600
326.49999321,-9.79576800
326.99999319,-9.74101800
327.49999318,-9.49187900
327.99999317,-9.48634300
328.49999315,-9.71333600
328.99999314,-9.87881400
329.49999312,-9.97600800
329.99999311,-9.96739700
330.49999310,-9.83759800
330.99999308,-9.83759800
331.49999307,-9.96739700
331.99999305,-9.96739700
332.49999304,-9.83759800
332.99999302,-9.83452200
333.49999301,-9.95386200
333.99999300,-10.01415000
334.49999298,-10.02522000
334.99999297,-9.91264700
335.49999295,-9.67458200
335.99999294,-9.67150600
336.49999293,-9.89849900
336.99999291,-10.06398000
337.49999290,-10.16117000
337.99999288,-10.15563000
338.49999287,-10.03629000
338.99999285,-9.98400600
339.49999284,-10.00615000
339.99999283,-9.95632300
340.49999281,-9.84867000
340.99999280,-9.79330700
341.49999278,-9.79330700
341.99999277,-9.84867000
342.49999276,-9.95632300
342.99999274,-10.00861000
343.49999273,-9.99753900
343.99999271,-9.99507800
344.49999270,-9.99507800
344.99999269,-9.99507800
345.49999267,-9.99507800
345.99999266,-9.99507800
346.49999264,-9.99507800
346.99999263,-9.99507800
347.49999261,-9.99507800
347.99999260,-9.99507800
348.49999259,-9.99507800
348.99999257,-9.99507800
349.49999256,-9.99507800
349.99999254,-10.00062000
350.49999253,-10.02215000
350.99999252,-9.91510800
351.49999250,-9.68811500
351.99999249,-9.63336600
352.49999247,-9.75209100
352.99999246,-9.86774200
353.49999244,-9.98646600
353.99999243,-9.92618100
354.49999242,-9.67704200
354.99999240,-9.67704200
355.49999239,-9.92618100
355.99999237,-9.98400600
356.49999236,-9.85420700
356.99999235,-9.79638200
357.49999233,-9.80745600
357.99999232,-9.81237700
358.49999230,-9.82344900
358.99999229,-9.76562400
359.49999228,-9.63582600
359.99999226,-9.68565500
360.49999225,-9.90157400
360.99999223,-10.06644000
361.49999222,-10.17470000
361.99999220,-10.11380000
362.49999219,-9.87635300
362.99999218,-9.82098900
363.49999216,-9.95078800
363.99999215,-10.00861000
364.49999213,-9.99753900
364.99999212,-9.99507800
365.49999211,-9.99507800
365.99999209,-10.00062000
366.49999208,-10.02215000
366.99999206,-9.91510800
367.49999205,-9.68811500
367.99999203,-9.63029000
368.49999202,-9.73855800
368.99999201,-9.90649500
369.49999199,-10.13349000
369.99999198,-10.13041000
370.49999196,-9.89234600
370.99999195,-9.77977300
371.49999194,-9.79084600
371.99999192,-9.84867000
372.49999191,-9.95632300
372.99999189,-10.00861000
373.49999188,-9.99753900
373.99999187,-10.00062000
374.49999185,-10.02215000
374.99999184,-9.91510800
375.49999182,-9.68811500
375.99999181,-9.63336600
376.49999179,-9.75209100
376.99999178,-9.86220500
377.49999177,-9.95939900
377.99999175,-10.01415000
378.49999174,-10.02522000
378.99999172,-9.91510800
379.49999171,-9.68811500
379.99999170,-9.63890200
380.49999168,-9.77977300
380.99999167,-9.77977300
381.49999165,-9.63890200
381.99999164,-9.68811500
382.49999162,-9.91510800
382.99999161,-10.02522000
383.49999160,-10.01415000
383.99999158,-9.95632300
384.49999157,-9.84867000
384.99999155,-9.79638200
385.49999154,-9.80745600
385.99999153,-9.80745600
386.49999151,-9.79638200
386.99999150,-9.85666800
387.49999148,-9.99753900
387.99999147,-9.88742500
388.49999145,-9.53063400
388.99999144,-9.47280900
389.49999143,-9.71087600
389.99999141,-9.87881400
390.49999140,-9.97600800
390.99999138,-9.97047100
391.49999137,-9.85113100
391.99999136,-9.79330700
392.49999134,-9.79330700
392.99999133,-9.84867000
393.49999131,-9.95632300
393.99999130,-10.01415000
394.49999129,-10.02522000
394.99999127,-9.91264700
395.49999126,-9.67458200
395.99999124,-9.67458200
396.49999123,-9.91264700
396.99999121,-10.02215000
397.49999120,-10.00062000
397.99999119,-9.99753900
398.49999117,-10.00861000
398.99999116,-9.95632300
399.49999114,-9.84867000
399.99999113,-9.79330700
400.49999112,-9.79330700
400.99999110,-9.85420700
401.49999109,-9.98400600
401.99999107,-9.92618100
402.49999106,-9.67704200
402.99999104,-9.67704200
403.49999103,-9.92618100
403.99999102,-9.98092900
404.49999100,-9.84005800
404.99999099,-9.83452200
405.49999097,-9.95386200
405.99999096,-10.01415000
406.49999095,-10.02522000
406.99999093,-9.91510800
407.49999092,-9.68811500
407.99999090,-9.63336600
408.49999089,-9.75209100
408.99999088,-9.86774200
409.49999086,-9.98646600
409.99999085,-9.93171700
410.49999083,-9.70472400
410.99999082,-9.59215000
411.49999080,-9.59215000
411.99999079,-9.69918700
412.49999078,-9.90403500
412.99999076,-10.06398000
413.49999075,-10.16117000
413.99999073,-10.16363000
414.49999072,-10.07751000
414.99999071,-9.86035800
415.49999069,-9.52509800
415.99999068,-9.47034800
416.49999066,-9.69734200
416.99999065,-9.91695300
417.49999063,-10.12242000
417.99999062,-10.17163000
418.49999061,-10.05290000
418.99999059,-9.94279000
419.49999058,-9.84559500
419.99999056,-9.79884200
420.49999055,-9.82098900
420.99999054,-9.76870100
421.49999052,-9.64936000
421.99999051,-9.65243500
422.49999049,-9.78223300
422.99999048,-9.77977300
423.49999047,-9.63890200
423.99999045,-9.68811500
424.49999044,-9.91510800
424.99999042,-10.02215000
425.49999041,-10.00062000
425.99999039,-9.99507800
426.49999038,-9.99507800
426.99999037,-9.99753900
427.49999035,-10.00861000
427.99999034,-9.95632300
428.49999032,-9.84867000
428.99999031,-9.79330700
429.49999030,-9.79330700
429.99999028,-9.85420700
430.49999027,-9.98400600
430.99999025,-9.92864100
431.49999024,-9.69119100
431.99999022,-9.63336600
432.49999021,-9.75209100
432.99999020,-9.86774200
433.49999018,-9.98646600
433.99999017,-9.92618100
434.49999015,-9.67704200
434.99999014,-9.67704200
435.49999013,-9.92618100
435.99999011,-9.98092900
436.49999010,-9.84005800
436.99999008,-9.83759800
437.49999007,-9.96739700
437.99999006,-9.97293300
438.49999004,-9.86466500
438.99999003,-9.75762700
439.49999001,-9.66043300
439.99999000,-9.60568300
440.49998998,-9.59461100
440.99998997,-9.70164800
441.49998996,-9.91818300
441.99998994,-10.02522000
442.49998993,-10.01415000
442.99998991,-9.95386200
443.49998990,-9.83452200
443.99998989,-9.83759800
444.49998987,-9.96739700
444.99998986,-9.97047100
445.49998984,-9.85113100
445.99998983,-9.79884200
446.49998981,-9.82098900
446.99998980,-9.76870100
447.49998979,-9.64936000
447.99998977,-9.64382400
448.49998976,-9.74101800
448.99998974,-9.90342000
449.49998973,-10.11934000
449.99998972,-10.17470000
450.49998970,-10.06644000
450.99998969,-9.90157400
451.49998967,-9.68565500
451.99998966,-9.63890200
452.49998964,-9.77977300
452.99998963,-9.77977300
453.49998962,-9.63890200
453.99998960,-9.69365100
454.49998959,-9.94279000
454.99998957,-9.94525100
455.49998956,-9.70718500
455.99998955,-9.59215000
456.49998953,-9.59215000
456.99998952,-9.70164800
457.49998950,-9.91818300
457.99998949,-10.02522000
458.49998948,-10.01415000
458.99998946,-9.95632300
459.49998945,-9.84867000
459.99998943,-9.79330700
460.49998942,-9.79330700
460.99998940,-9.85113100
461.49998939,-9.97047100
461.99998938,-9.97047100
462.49998936,-9.85113100
462.99998935,-9.79330700
463.49998933,-9.79330700
463.99998932,-9.84559500
464.49998931,-9.94279000
464.99998929,-10.04983000
465.49998928,-10.15810000
465.99998926,-10.15810000
466.49998925,-10.04983000
466.99998923,-9.94279000
467.49998922,-9.84559500
467.99998921,-9.79638200
468.49998919,-9.80745600
468.99998918,-9.80437900
469.49998916,-9.78284900
469.99998915,-9.88988600
470.49998914,-10.11688000
470.99998912,-10.16917000
471.49998911,-10.03937000
471.99998909,-9.98154500
472.49998908,-9.99261800
472.99998907,-9.99507800
473.49998905,-9.99507800
473.99998904,-10.00062000
474.49998902,-10.02215000
474.99998901,-9.91510800
475.49998899,-9.68811500
475.99998898,-9.63582600
476.49998897,-9.76562400
476.99998895,-9.82344900
477.49998894,-9.81237700
477.99998892,-9.81237700
478.49998891,-9.82344900
478.99998890,-9.76870100
479.49998888,-9.64936000
479.99998887,-9.64689900
480.49998885,-9.75516700
480.99998884,-9.86774200
481.49998882,-9.98646600
481.99998881,-9.93171700
482.49998880,-9.70472400
482.99998878,-9.59461100
483.49998877,-9.60568300
483.99998875,-9.66596900
484.49998874,-9.78531000
484.99998873,-9.77977300
485.49998871,-9.63890200
485.99998870,-9.69119100
486.49998868,-9.92864100
486.99998867,-9.98092900
487.49998866,-9.84005800
487.99998864,-9.83206100
488.49998863,-9.94033000
488.99998861,-10.05536000
489.49998860,-10.18516000
489.99998858,-10.07812000
490.49998857,-9.74286400
490.99998856,-9.58107800
491.49998854,-9.60260800
491.99998853,-9.66350800
492.49998851,-9.77116100
492.99998850,-9.82098900
493.49998849,-9.79884200
493.99998847,-9.85113100
494.49998846,-9.97047100
494.99998844,-9.97047100
495.49998843,-9.85113100
495.99998841,-9.79330700
496.49998840,-9.79330700
496.99998839,-9.85420700
497.49998837,-9.98400600
497.99998836,-9.92864100
498.49998834,-9.69119100
498.99998833,-9.63582600
499.49998832,-9.76562400
499.99998830,-9.82098900
500.49998829,-9.79884200
500.99998827,-9.84559500
501.49998826,-9.94279000
501.99998824,-10.05290000
502.49998823,-10.17163000
502.99998822,-10.11688000
503.49998820,-9.88988600
503.99998819,-9.78531000
504.49998817,-9.81791200
504.99998816,-9.76562400
505.49998815,-9.63582600
505.99998813,-9.68811500
506.49998812,-9.91510800
506.99998810,-10.02215000
507.49998809,-10.00062000
507.99998808,-9.99753900
508.49998806,-10.00861000
508.99998805,-9.95386200
509.49998803,-9.83452200
509.99998802,-9.83452200
510.49998800,-9.95386200
510.99998799,-10.00861000
511.49998798,-9.99753900
511.99998796,-9.99507800
512.49998795,-9.99507800
512.99998793,-10.00062000
513.49998792,-10.02215000
513.99998791,-9.91818300
514.49998789,-9.70164800
514.99998788,-9.59461100
515.49998786,-9.60568300
515.99998785,-9.66043300
516.49998783,-9.75762700
516.99998782,-9.86220500
517.49998781,-9.95939900
517.99998779,-10.01968000
518.49998778,-10.05229000
518.99998776,-9.83267700
519.49998775,-9.36761900
519.99998774,-9.31532900
520.49998772,-9.68319300
520.99998771,-9.84805600
521.49998769,-9.80437900
521.99998768,-9.85113100
522.49998767,-9.97047100
522.99998765,-9.97047100
523.49998764,-9.85113100
523.99998762,-9.79084600
524.49998761,-9.77977300
524.99998759,-9.88435100
525.49998758,-10.08920000
525.99998757,-10.25467000
526.49998755,-10.37340000
526.99998754,-10.26329000
527.49998752,-9.92802600
527.99998751,-9.76870100
528.49998750,-9.80191900
528.99998748,-9.80745600
529.49998747,-9.79638200
529.99998745,-9.84867000
530.49998744,-9.95632300
530.99998742,-10.01169000
531.49998741,-10.01169000
531.99998740,-9.95939900
532.49998738,-9.86220500
532.99998737,-9.75209100
533.49998735,-9.63336600
533.99998734,-9.69119100
534.49998733,-9.92864100
534.99998731,-9.98092900
535.49998730,-9.84005800
535.99998728,-9.83452200
536.49998727,-9.95386200
536.99998726,-10.00861000
537.49998724,-9.99753900
537.99998723,-9.99507800
538.49998721,-9.99507800
538.99998720,-9.99753900
539.49998718,-10.00861000
539.99998717,-9.95632300
540.49998716,-9.84867000
540.99998714,-9.79330700
541.49998713,-9.79330700
541.99998711,-9.85420700
542.49998710,-9.98400600
542.99998709,-9.92864100
543.49998707,-9.69119100
543.99998706,-9.63029000
544.49998704,-9.73855800
544.99998703,-9.90342000
545.49998701,-10.11934000
545.99998700,-10.16917000
546.49998699,-10.03937000
546.99998697,-9.98400600
547.49998696,-10.00615000
547.99998694,-9.95939900
548.49998693,-9.86220500
548.99998692,-9.75516700
549.49998690,-9.64689900
549.99998689,-9.65489600
550.49998687,-9.79576800
550.99998686,-9.74347900
551.49998685,-9.50602800
551.99998683,-9.44512700
552.49998682,-9.55339500
552.99998680,-9.71579600
553.49998679,-9.92064400
553.99998677,-10.02215000
554.49998676,-10.00062000
554.99998675,-10.00062000
555.49998673,-10.02215000
555.99998672,-9.91510800
556.49998670,-9.68811500
556.99998669,-9.63582600
557.49998668,-9.76562400
557.99998666,-9.82652600
558.49998665,-9.82652600
558.99998663,-9.76870100
559.49998662,-9.64936000
559.99998660,-9.64382400
560.49998659,-9.74101800
560.99998658,-9.90342000
561.49998656,-10.11934000
561.99998655,-10.16917000
562.49998653,-10.03937000
562.99998652,-9.98154500
563.49998651,-9.99261800
563.99998649,-9.98954200
564.49998648,-9.96801100
564.99998646,-10.07505000
565.49998645,-10.30204000
565.99998643,-10.35987000
566.49998642,-10.25160000
566.99998641,-10.08674000
567.49998639,-9.87081600
567.99998638,-9.81545200
568.49998636,-9.92372000
568.99998635,-10.08858000
569.49998634,-10.30450000
569.99998632,-10.35679000
570.49998631,-10.23807000
570.99998629,-10.12242000
571.49998628,-10.00369000
571.99998627,-10.06398000
572.49998625,-10.31311000
572.99998624,-10.31311000
573.49998622,-10.06398000
573.99998621,-9.99815500
574.49998619,-10.09535000
574.99998618,-10.31250000
575.49998617,-10.63669000
575.99998615,-10.76587000
576.49998614,-10.73388000
576.99998612,-10.19562000
577.49998611,-9.30056600
577.99998610,-7.96321300
578.49998608,-6.40871000
578.99998607,-5.29896600
579.49998605,-4.86897100
579.99998604,-4.41067900
580.49998602,-4.11970900
580.99998601,-3.57037400
581.49998600,-2.89062500
581.99998598,-2.39111700
582.49998597,-2.18627000
582.99998595,-1.84854800
583.49998594,-1.48253000
583.99998593,-1.14173200
584.49998591,-0.92642710
584.99998590,-0.48474410
585.49998588,0.06520669
585.99998587,0.68836120
586.49998586,1.29306100
586.99998584,1.48806600
587.49998583,1.21739700
587.99998581,1.05807100
588.49998580,1.02669800
588.99998578,0.73818890
589.49998577,0.28543310
589.99998576,-0.35740650
590.49998574,-1.13496600
590.99998573,-1.13496600
591.49998571,-0.35740650
591.99998570,0.29896650
592.49998569,0.80647140
592.99998567,0.86429620
593.49998566,0.47551670
593.99998564,-0.21407480
594.49998563,-1.13127500
594.99998561,-1.66154000
595.49998560,-1.74766200
595.99998559,-1.39579200
596.49998557,-0.57394190
596.99998556,-0.45337100
597.49998554,-1.01501000
597.99998553,-1.55942400
598.49998552,-2.05585600
598.99998550,-2.24224900
599.49998549,-2.04724400
599.99998547,-2.13459600
600.49998546,-2.45878400
600.99998545,-2.69254400
601.49998543,-2.85494600
601.99998542,-2.50061500
602.49998540,-1.70214100
602.99998539,-0.89997540
603.49998537,-0.16547740
603.99998536,-0.08858267
604.49998535,-0.62807580
604.99998533,-1.82517200
605.49998532,-3.50885800
605.99998530,-4.80807100
606.49998529,-5.53088000
606.99998528,-5.72034900
607.49998526,-5.31003900
607.99998525,-4.58538300
608.49998523,-3.65711100
608.99998522,-2.61934000
609.49998520,-1.62586100
609.99998519,-1.19463600
610.49998518,-1.35642200
610.99998516,-2.23548200
611.49998515,-3.69217500
611.99998513,-5.14763700
612.49998512,-6.38902500
612.99998511,-7.06446800
613.49998509,-7.07554100
613.99998508,-6.32812500
614.49998506,-4.89173200
614.99998505,-3.77952700
615.49998503,-3.11085100
615.99998502,-3.07517200
616.49998501,-3.71186000
616.99998499,-4.45620100
617.49998498,-5.23314500
617.99998496,-5.73880400
618.49998495,-5.86798700
618.99998494,-5.95841500
619.49998492,-5.96948800
619.99998491,-5.79601300
620.49998489,-5.42876500
620.99998488,-5.45091000
621.49998487,-5.79539800
621.99998485,-6.56988100
622.49998484,-7.64948300
622.99998482,-8.53654000
623.49998481,-9.10802200
623.99998479,-9.22613100
624.49998478,-8.90317400
624.99998477,-7.85679100
625.49998475,-6.22600800
625.99998474,-5.08919800
626.49998472,-4.51648600
626.99998471,-5.24975400
627.49998470,-7.19303600
627.99998468,-8.99237200
628.49998467,-10.44968000
628.99998465,-11.00763000
629.49998464,-10.55364000
629.99998462,-9.66350800
630.49998461,-8.45472300
630.99998460,-7.04601400
631.49998458,-5.63176600
631.99998457,-5.10457700
632.49998455,-5.52534400
632.99998454,-6.52805100
633.49998453,-7.99581600
633.99998451,-9.28949300
634.49998450,-10.20669000
634.99998448,-10.72835000
635.49998447,-10.78310000
635.99998446,-9.99753900
636.49998444,-8.47502400
636.99998443,-7.19734200
637.49998441,-6.29060000
637.99998440,-6.29859700
638.49998438,-7.23855800
638.99998437,-8.34830200
639.49998436,-9.50295300
639.99998434,-10.32972000
640.49998433,-10.69636000
640.99998431,-10.58932000
641.49998430,-10.01722000
641.99998429,-9.13016700
642.49998427,-8.05056500
642.99998426,-7.26808500
643.49998424,-6.89037800
643.99998423,-6.99187900
644.49998421,-7.55290300
644.99998420,-8.50332100
645.49998419,-9.73425200
645.99998417,-10.37156000
646.49998416,-10.35002000
646.99998414,-9.81114700
647.49998413,-8.79675200
647.99998412,-7.95029500
648.49998410,-7.36774100
648.99998409,-7.26624000
649.49998407,-7.66547700
649.99998406,-8.34399600
650.49998405,-9.20706200
650.99998403,-9.98462000
651.49998402,-10.55672000
651.99998400,-10.75418000
652.49998399,-10.52719000
652.99998397,-10.15379000
653.49998396,-9.66781400
653.99998395,-9.24458600
654.49998393,-8.93208600
654.99998392,-8.97883900
655.49998390,-9.36700200
655.99998389,-9.93233200
656.49998388,-10.58009000
656.99998386,-11.25861000
657.49998385,-11.87377000
657.99998383,-11.98942000
658.49998382,-11.61171000
658.99998380,-10.82308000
659.49998379,-9.72194900
659.99998378,-8.94192800
660.49998376,-8.59744100
660.99998375,-8.55622500
661.49998373,-8.84781000
661.99998372,-9.37807500
662.49998371,-10.09043000
662.99998369,-10.51058000
663.49998368,-10.58624000
663.99998366,-10.41277000
664.49998365,-9.98031500
664.99998364,-9.71948700
665.49998362,-9.66596900
665.99998361,-9.57554100
666.49998359,-9.48880400
666.99998358,-9.37623000
667.49998356,-9.23535900
667.99998355,-9.39222300
668.49998354,-9.82467900
668.99998352,-10.09104000
669.49998351,-10.16609000
669.99998349,-10.16917000
670.49998348,-10.10458000
670.99998347,-9.78592500
671.49998345,-9.24643100
671.99998344,-9.02620600
672.49998342,-9.13385800
672.99998341,-9.46358300
673.49998339,-10.00369000
673.99998338,-10.21284000
674.49998337,-10.06090000
674.99998335,-9.94832700
675.49998334,-9.87327700
675.99998332,-9.72994500
676.49998331,-9.56877400
676.99998330,-9.26119500
677.49998328,-8.86195900
677.99998327,-8.60666800
678.49998325,-8.54207600
678.99998324,-8.48117600
679.49998322,-8.41597000
679.99998321,-8.76783900
680.49998320,-9.45804600
680.99998318,-10.14210000
681.49998317,-10.73634000
681.99998315,-10.93381000
682.49998314,-10.68528000
682.99998313,-10.41585000
683.49998311,-10.14641000
683.99998310,-9.83575200
684.49998308,-9.53309400
684.99998307,-9.42359700
685.49998306,-9.50971900
685.99998304,-9.82591000
686.49998303,-10.33341000
686.99998301,-10.68775000
687.49998300,-10.81693000
687.99998298,-11.07468000
688.49998297,-11.42040000
688.99998296,-11.37365000
689.49998294,-10.95288000
689.99998293,-10.52411000
690.49998291,-10.12488000
690.99998290,-9.97047100
691.49998289,-10.08981000
691.99998287,-10.31250000
692.49998286,-10.63669000
692.99998284,-10.74619000
693.49998283,-10.63853000
693.99998281,-10.42384000
694.49998280,-10.12180000
694.99998279,-9.90711100
695.49998277,-9.79945900
695.99998276,-9.90342000
696.49998274,-10.20608000
696.99998273,-10.52780000
697.49998272,-10.84092000
697.99998270,-10.88460000
698.49998269,-10.63607000
698.99998267,-10.53457000
699.49998266,-10.59978000
699.99998265,-10.40477000
700.49998263,-10.00492000
700.99998262,-9.63705600
701.49998260,-9.34547200
701.99998259,-9.25196800
702.49998257,-9.39283900
702.99998256,-9.45066500
703.49998255,-9.42851800
703.99998253,-9.48080600
704.49998252,-9.60014700
704.99998250,-9.61060500
705.49998249,-9.53555600
705.99998248,-9.26919300
706.49998246,-8.83735200
706.99998245,-8.67802600
707.49998243,-8.80782400
707.99998242,-8.96161400
708.49998240,-9.11171200
708.99998239,-9.46604300
709.49998238,-9.95201800
709.99998236,-10.37525000
710.49998235,-10.68836000
710.99998233,-10.62808000
711.49998232,-10.18516000
711.99998231,-9.85482300
712.49998229,-9.64997500
712.99998228,-9.70780000
713.49998226,-10.03199000
713.99998225,-10.29281000
714.49998224,-10.45460000
714.99998222,-10.65760000
715.49998221,-10.86306000
715.99998219,-10.91228000
716.49998218,-10.79355000
716.99998216,-10.68651000
717.49998215,-10.59978000
717.99998214,-10.50381000
718.49998212,-10.42876000
718.99998211,-10.26882000
719.49998209,-10.04183000
719.99998208,-10.04183000
720.49998207,-10.26882000
720.99998205,-10.43984000
721.49998204,-10.55856000
721.99998202,-10.44845000
722.49998201,-10.11319000
722.99998199,-9.95386200
723.49998198,-9.98708100
723.99998197,-9.98154500
724.49998195,-9.92679500
724.99998194,-10.18762000
725.49998192,-10.72835000
725.99998191,-11.00025000
726.49998190,-10.98917000
726.99998188,-10.76956000
727.49998187,-10.34818000
727.99998185,-10.08735000
728.49998184,-10.02276000
728.99998182,-9.98154500
729.49998181,-9.99261800
729.99998180,-9.99507800
730.49998178,-9.99507800
730.99998177,-9.99507800
731.49998175,-9.99507800
731.99998174,-10.00308000
732.49998173,-10.03629000
732.99998171,-9.88742500
733.49998170,-9.59645700
733.99998168,-9.28026600
734.49998167,-8.97822300
734.99998166,-8.86872600
735.49998164,-8.95484600
735.99998163,-9.27349900
736.49998161,-9.79146100
736.99998160,-10.11872000
737.49998158,-10.23745000
737.99998157,-9.96801100
738.49998156,-9.33132400
738.99998154,-8.90563500
739.49998153,-8.73277600
739.99998151,-8.73277600
740.49998150,-8.90563500
740.99998149,-9.31717500
741.49998147,-9.89973000
741.99998146,-10.42200000
742.49998144,-10.81078000
742.99998143,-10.90920000
743.49998141,-10.69328000
743.99998140,-10.37709000
744.49998139,-9.99938500
744.99998137,-9.63705600
745.49998136,-9.34547200
745.99998134,-9.24397100
746.49998133,-9.35162400
746.99998132,-9.56631400
747.49998130,-9.86835600
747.99998129,-10.07997000
748.49998127,-10.17717000
748.99998126,-10.12242000
749.49998125,-9.91695300
749.99998123,-9.70287800
750.49998122,-9.49741600
750.99998120,-9.43959000
751.49998119,-9.52632800
751.99998117,-9.79269100
752.49998116,-10.21407000
752.99998115,-10.42569000
753.49998113,-10.40354000
753.99998112,-10.29404000
754.49998110,-10.09966000
754.99998109,-9.89050200
755.49998108,-9.69611200
755.99998106,-9.58353800
756.49998105,-9.55093500
756.99998103,-9.80622500
757.49998102,-10.30327000
757.99998100,-10.77571000
758.49998099,-11.16388000
758.99998098,-11.32320000
759.49998096,-11.23708000
759.99998095,-10.87168000
760.49998093,-10.27805000
760.99998092,-9.75639700
761.49998091,-9.37869100
761.99998089,-9.22982200
762.49998088,-9.34916300
762.99998086,-9.56077800
763.49998085,-9.84128900
763.99998084,-10.15194000
764.49998082,-10.44291000
764.99998081,-10.60285000
765.49998079,-10.61331000
765.99998078,-10.40723000
766.49998076,-10.01845000
766.99998075,-9.59584100
767.49998074,-9.18553100
767.99998072,-9.08095500
768.49998071,-9.29687500
768.99998069,-9.61860200
769.49998068,-10.01784000
769.99998067,-10.27621000
770.49998065,-10.35125000
770.99998064,-10.34879000
771.49998062,-10.26267000
771.99998061,-10.05352000
772.49998059,-9.75147500
772.99998058,-9.53986200
773.49998057,-9.44266700
773.99998055,-9.50602800
774.49998054,-9.74347900
774.99998052,-9.79576800
775.49998051,-9.65489600
775.99998050,-9.65243500
776.49998048,-9.78223300
776.99998047,-9.79330700
777.49998045,-9.70718500
777.99998044,-9.49803200
778.49998043,-9.19660400
778.99998041,-8.98191400
779.49998040,-8.87426100
779.99998038,-8.98129900
780.49998037,-9.29379800
780.99998035,-9.55462600
781.49998034,-9.72748500
781.99998033,-9.88127400
782.49998031,-9.98954200
782.99998030,-9.93417800
783.49998028,-9.71825700
783.99998027,-9.54785900
784.49998026,-9.41806000
784.99998024,-9.57738700
785.49998023,-10.00984000
785.99998021,-10.27067000
786.49998020,-10.32419000
786.99998018,-10.42015000
787.49998017,-10.52842000
787.99998016,-10.52596000
788.49998014,-10.40662000
788.99998013,-10.34879000
789.49998011,-10.34879000
789.99998010,-10.40108000
790.49998009,-10.49828000
790.99998007,-10.60531000
791.49998006,-10.71358000
791.99998004,-10.71112000
792.49998003,-10.59178000
792.99998001,-10.54503000
793.49998000,-10.58871000
793.99997999,-10.43738000
794.49997997,-10.12426000
794.99997996,-9.91018600
795.49997994,-9.81299100
795.99997993,-9.87635300
796.49997992,-10.11380000
796.99997990,-10.16609000
797.49997989,-10.02522000
797.99997987,-10.02830000
798.49997986,-10.17963000
798.99997985,-10.08120000
799.49997983,-9.75701200
799.99997982,-9.54232200
800.49997980,-9.45620000
800.99997979,-9.46419700
801.49997977,-9.58353800
801.99997976,-9.63828700
802.49997975,-9.62721400
802.99997973,-9.62229300
803.49997972,-9.61122000
803.99997970,-9.66904400
804.49997969,-9.79884200
804.99997968,-9.74101800
805.49997966,-9.49187900
805.99997965,-9.49741600
806.49997963,-9.76808500
806.99997962,-9.72440900
807.49997960,-9.38914900
807.99997959,-9.17507400
808.49997958,-9.10002400
808.99997956,-9.05327200
809.49997955,-9.05327200
809.99997953,-9.10556000
810.49997952,-9.20214100
810.99997951,-9.29810500
811.49997949,-9.36269600
811.99997948,-9.56877400
812.49997946,-9.88188800
812.99997945,-10.03629000
813.49997944,-10.00308000
813.99997942,-9.99753900
814.49997941,-10.00861000
814.99997939,-9.95386200
815.49997938,-9.83452200
815.99997936,-9.82652600
816.49997935,-9.91264700
816.99997934,-10.12426000
817.49997932,-10.43738000
817.99997931,-10.59178000
818.49997929,-10.55856000
818.99997928,-10.55057000
819.49997927,-10.55057000
819.99997925,-10.55057000
820.49997924,-10.55057000
820.99997922,-10.54503000
821.49997921,-10.52350000
821.99997919,-10.63853000
822.49997918,-10.89813000
822.99997917,-10.79663000
823.49997915,-10.35372000
823.99997914,-10.08428000
824.49997912,-10.00923000
824.99997911,-10.01968000
825.49997910,-10.13902000
825.99997908,-10.19377000
826.49997907,-10.18270000
826.99997905,-10.17470000
827.49997904,-10.15317000
827.99997903,-10.26575000
828.49997901,-10.51427000
828.99997900,-10.46506000
829.49997898,-10.12980000
829.99997897,-9.91818300
830.49997895,-9.85359300
830.99997894,-9.75762700
831.49997893,-9.66043300
831.99997891,-9.60814500
832.49997890,-9.60814500
832.99997888,-9.66904400
833.49997887,-9.79884200
833.99997886,-9.74901500
834.49997884,-9.53309400
834.99997883,-9.37377000
835.49997881,-9.28764700
835.99997880,-9.24089500
836.49997878,-9.25196800
836.99997877,-9.24889200
837.49997876,-9.22736200
837.99997874,-9.33686000
838.49997873,-9.57492500
838.99997871,-9.57492500
839.49997870,-9.33686000
839.99997869,-9.22182600
840.49997867,-9.22182600
840.99997866,-9.33132400
841.49997864,-9.54785900
841.99997863,-9.64628400
842.49997861,-9.60322300
842.99997860,-9.70164800
843.49997859,-9.91818300
843.99997857,-10.01968000
844.49997856,-9.98708100
844.99997854,-10.02830000
845.49997853,-10.11442000
845.99997852,-10.27682000
846.49997850,-10.50381000
846.99997849,-10.50074000
847.49997847,-10.26267000
847.99997846,-10.14764000
848.49997845,-10.14764000
848.99997843,-10.25467000
849.49997842,-10.45952000
849.99997840,-10.61639000
850.49997839,-10.70251000
850.99997837,-10.75480000
851.49997836,-10.76587000
851.99997835,-10.66129000
852.49997833,-10.45645000
852.99997832,-10.29097000
853.49997830,-10.17224000
853.99997829,-10.28789000
854.49997828,-10.64468000
854.99997826,-10.69943000
855.49997825,-10.45091000
855.99997823,-10.34080000
856.49997822,-10.37340000
856.99997820,-10.32972000
857.49997819,-10.23253000
857.99997818,-10.12795000
858.49997816,-10.03076000
858.99997815,-9.98154500
859.49997813,-9.99261800
859.99997812,-9.99261800
860.49997811,-9.98154500
860.99997809,-10.03937000
861.49997808,-10.16917000
861.99997806,-10.12488000
862.49997805,-9.93048700
862.99997804,-9.66966000
863.49997802,-9.37807500
863.99997801,-9.16646100
864.49997799,-9.05880800
864.99997798,-9.17199800
865.49997796,-9.50664300
865.99997795,-9.66596900
866.49997794,-9.63275100
866.99997792,-9.62721400
867.49997791,-9.63828700
867.99997789,-9.59153500
868.49997788,-9.50541300
868.99997787,-9.34055100
869.49997785,-9.10310000
869.99997784,-9.15784900
870.49997782,-9.50356700
870.99997781,-9.66289300
871.49997779,-9.61921700
871.99997778,-9.66350800
872.49997777,-9.77116100
872.99997775,-9.82344900
873.49997774,-9.81237700
873.99997772,-9.80745600
874.49997771,-9.79638200
874.99997770,-9.84867000
875.49997768,-9.95632300
875.99997767,-10.00308000
876.49997765,-9.97047100
876.99997764,-10.07197000
877.49997763,-10.28851000
877.99997761,-10.39801000
878.49997760,-10.39801000
878.99997758,-10.29404000
879.49997757,-10.09966000
879.99997755,-9.88496500
880.49997754,-9.66904400
880.99997753,-9.67458200
881.49997751,-9.91264700
881.99997750,-10.01968000
882.49997748,-9.98708100
882.99997747,-10.03629000
883.49997746,-10.15563000
883.99997744,-10.15810000
884.49997743,-10.04983000
884.99997741,-9.94033000
885.49997740,-9.83206100
885.99997738,-9.83206100
886.49997737,-9.94033000
886.99997736,-10.04429000
887.49997734,-10.13103000
887.99997733,-10.23253000
888.49997731,-10.32972000
888.99997730,-10.38447000
889.49997729,-10.39555000
889.99997727,-10.29097000
890.49997726,-10.08612000
890.99997724,-9.92618100
891.49997723,-9.82898600
891.99997722,-9.83206100
892.49997720,-9.94033000
892.99997719,-10.04429000
893.49997717,-10.13103000
893.99997716,-10.23807000
894.49997714,-10.35679000
894.99997713,-10.30450000
895.49997712,-10.08858000
895.99997710,-9.92925600
896.49997709,-9.84313500
896.99997707,-9.80191900
897.49997706,-9.83452200
897.99997705,-9.72994500
898.49997703,-9.50295300
898.99997702,-9.45373900
899.49997700,-9.59461100
899.99997699,-9.59707200
900.49997697,-9.46727400
900.99997696,-9.46419700
901.49997695,-9.58353800
901.99997693,-9.64382400
902.49997692,-9.65489600
