Time,Channel B
(ns),(mV)

-100.99999470,-9.92618100
-100.49999472,-9.67704200
-99.99999473,-9.67458200
-99.49999474,-9.91264700
-98.99999476,-10.02522000
-98.49999477,-10.01415000
-97.99999479,-9.95386200
-97.49999480,-9.83452200
-96.99999481,-9.83759800
-96.49999483,-9.96739700
-95.99999484,-9.97047100
-95.49999486,-9.85113100
-94.99999487,-9.79330700
-94.49999488,-9.79330700
-93.99999490,-9.85420700
-93.49999491,-9.98400600
-92.99999493,-9.92864100
-92.49999494,-9.69119100
-91.99999496,-9.63336600
-91.49999497,-9.75209100
-90.99999498,-9.85912800
-90.49999500,-9.94586600
-89.99999501,-10.04983000
-89.49999503,-10.15810000
-88.99999504,-10.15810000
-88.49999505,-10.04983000
-87.99999507,-9.94279000
-87.49999508,-9.84559500
-86.99999510,-9.79330700
-86.49999511,-9.79330700
-85.99999513,-9.85420700
-85.49999514,-9.98400600
-84.99999515,-9.92864100
-84.49999517,-9.69119100
-83.99999518,-9.63582600
-83.49999520,-9.76562400
-82.99999521,-9.82098900
-82.49999522,-9.79884200
-81.99999524,-9.84867000
-81.49999525,-9.95632300
-80.99999527,-10.00861000
-80.49999528,-9.99753900
-79.99999529,-9.99753900
-79.49999531,-10.00861000
-78.99999532,-9.95386200
-78.49999534,-9.83452200
-77.99999535,-9.83452200
-77.49999537,-9.95386200
-76.99999538,-10.01415000
-76.49999539,-10.02522000
-75.99999541,-9.91264700
-75.49999542,-9.67458200
-74.99999544,-9.67458200
-74.49999545,-9.91264700
-73.99999546,-10.02522000
-73.49999548,-10.01415000
-72.99999549,-9.95939900
-72.49999551,-9.86220500
-71.99999552,-9.75516700
-71.49999554,-9.64689900
-70.99999555,-9.64382400
-70.49999556,-9.74101800
-69.99999558,-9.90342000
-69.49999559,-10.11934000
-68.99999561,-10.16917000
-68.49999562,-10.03937000
-67.99999563,-9.98400600
-67.49999565,-10.00615000
-66.99999566,-9.95386200
-66.49999568,-9.83452200
-65.99999569,-9.83452200
-65.49999571,-9.95386200
-64.99999572,-10.01415000
-64.49999573,-10.02522000
-63.99999575,-9.91818300
-63.49999576,-9.70164800
-62.99999578,-9.59215000
-62.49999579,-9.59215000
-61.99999580,-9.70472400
-61.49999582,-9.93171700
-60.99999583,-9.98400600
-60.49999585,-9.85420700
-59.99999586,-9.79330700
-59.49999587,-9.79330700
-58.99999589,-9.84867000
-58.49999590,-9.95632300
-57.99999592,-10.01169000
-57.49999593,-10.01169000
-56.99999595,-9.96186000
-56.49999596,-9.87573700
-55.99999597,-9.71333600
-55.49999599,-9.48634300
-54.99999600,-9.48388300
-54.49999602,-9.69980200
-53.99999603,-9.92003000
-53.49999604,-10.13595000
-52.99999606,-10.12795000
-52.49999607,-9.87881400
-51.99999609,-9.82098900
-51.49999610,-9.95078800
-50.99999612,-10.00861000
-50.49999613,-9.99753900
-49.99999614,-9.99507800
-49.49999616,-9.99507800
-48.99999617,-9.99507800
-48.49999619,-9.99507800
-47.99999620,-9.99753900
-47.49999621,-10.00861000
-46.99999623,-9.95078800
-46.49999624,-9.82098900
-45.99999626,-9.87635300
-45.49999627,-10.11380000
-44.99999628,-10.17470000
-44.49999630,-10.06644000
-43.99999631,-9.90157400
-43.49999633,-9.68565500
-42.99999634,-9.63029000
-42.49999636,-9.73855800
-41.99999637,-9.90342000
-41.49999638,-10.11934000
-40.99999640,-10.17163000
-40.49999641,-10.05290000
-39.99999643,-9.94033000
-39.49999644,-9.83206100
-38.99999645,-9.83206100
-38.49999647,-9.94033000
-37.99999648,-10.05536000
-37.49999650,-10.18516000
-36.99999651,-10.07812000
-36.49999653,-9.74286400
-35.99999654,-9.58107800
-35.49999655,-9.60260800
-34.99999657,-9.66043300
-34.49999658,-9.75762700
-33.99999660,-9.86466500
-33.49999661,-9.97293300
-32.99999662,-9.97293300
-32.49999664,-9.86466500
-31.99999665,-9.75516700
-31.49999667,-9.64689900
-30.99999668,-9.64689900
-30.49999669,-9.75516700
-29.99999671,-9.86220500
-29.49999672,-9.95939900
-28.99999674,-10.00615000
-28.49999675,-9.98400600
-27.99999677,-10.03629000
-27.49999678,-10.15563000
-26.99999679,-10.15563000
-26.49999681,-10.03629000
-25.99999682,-9.98154500
-25.49999684,-9.99261800
-24.99999685,-10.00062000
-24.49999686,-10.02215000
-23.99999688,-9.91510800
-23.49999689,-9.68811500
-22.99999691,-9.63029000
-22.49999692,-9.73855800
-21.99999694,-9.90096000
-21.49999695,-10.10581000
-20.99999696,-10.21038000
-20.49999698,-10.19931000
-19.99999699,-10.14456000
-19.49999701,-10.04737000
-18.99999702,-9.94279000
-18.49999703,-9.84559500
-17.99999705,-9.79330700
-17.49999706,-9.79330700
-16.99999708,-9.85420700
-16.49999709,-9.98400600
-15.99999710,-9.92864100
-15.49999712,-9.69119100
-14.99999713,-9.63336600
-14.49999715,-9.75209100
-13.99999716,-9.86774200
-13.49999718,-9.98646600
-12.99999719,-9.93171700
-12.49999720,-9.70472400
-11.99999722,-9.59461100
-11.49999723,-9.60568300
-10.99999725,-9.66043300
-10.49999726,-9.75762700
-9.99999727,-9.86220500
-9.49999729,-9.95939900
-8.99999730,-10.00861000
-8.49999732,-9.99753900
-7.99999733,-9.99261800
-7.49999735,-9.98154500
-6.99999736,-10.03629000
-6.49999737,-10.15563000
-5.99999739,-10.16117000
-5.49999740,-10.06398000
-4.99999742,-9.89849900
-4.49999743,-9.67150600
-3.99999744,-9.67704200
-3.49999746,-9.92618100
-2.99999747,-9.98400600
-2.49999749,-9.85420700
-1.99999750,-9.79084600
-1.49999752,-9.77977300
-0.99999753,-9.89234600
-0.49999754,-10.13041000
0.00000244,-10.13595000
0.50000243,-9.92003000
1.00000241,-9.69734200
1.50000240,-9.47034800
2.00000239,-9.52817300
2.50000237,-9.87389300
3.00000236,-10.03629000
3.50000234,-10.00308000
4.00000233,-9.99507800
4.50000232,-9.99507800
5.00000230,-9.99507800
5.50000229,-9.99507800
6.00000227,-9.99507800
6.50000226,-9.99507800
7.00000224,-10.00062000
7.50000223,-10.02215000
8.00000222,-9.91818300
8.50000220,-9.70164800
9.00000219,-9.59215000
9.50000217,-9.59215000
10.00000216,-9.70164800
10.50000215,-9.91818300
11.00000213,-10.02768000
11.50000212,-10.02768000
12.00000210,-9.91264700
12.50000209,-9.67458200
13.00000207,-9.67704200
13.50000206,-9.92618100
14.00000205,-9.98092900
14.50000203,-9.84005800
15.00000202,-9.84005800
15.50000200,-9.98092900
16.00000199,-9.92864100
16.50000198,-9.69119100
17.00000196,-9.63336600
17.50000195,-9.75209100
18.00000193,-9.86220500
18.50000192,-9.95939900
19.00000191,-10.00861000
19.50000189,-9.99753900
20.00000188,-9.99507800
20.50000186,-9.99507800
21.00000185,-9.99261800
21.50000183,-9.98154500
22.00000182,-10.03937000
22.50000181,-10.16917000
23.00000179,-10.11934000
23.50000178,-9.90342000
24.00000176,-9.73855800
24.50000175,-9.63029000
25.00000174,-9.68811500
25.50000172,-9.91510800
26.00000171,-10.02768000
26.50000169,-10.02768000
27.00000168,-9.91264700
27.50000166,-9.67458200
28.00000165,-9.67704200
28.50000164,-9.92618100
29.00000162,-9.98400600
29.50000161,-9.85420700
30.00000159,-9.79330700
30.50000158,-9.79330700
31.00000157,-9.85113100
31.50000155,-9.97047100
32.00000154,-9.97047100
32.50000152,-9.85113100
33.00000151,-9.79330700
33.50000150,-9.79330700
34.00000148,-9.84867000
34.50000147,-9.95632300
35.00000145,-10.01415000
35.50000144,-10.02522000
36.00000142,-9.91510800
36.50000141,-9.68811500
37.00000140,-9.63029000
37.50000138,-9.73855800
38.00000137,-9.90342000
38.50000135,-10.11934000
39.00000134,-10.16917000
39.50000133,-10.03937000
40.00000131,-9.98154500
40.50000130,-9.99261800
41.00000128,-9.99507800
41.50000127,-9.99507800
42.00000125,-9.99507800
42.50000124,-9.99507800
43.00000123,-9.99507800
43.50000121,-9.99507800
44.00000120,-9.99753900
44.50000118,-10.00861000
45.00000117,-9.95632300
45.50000116,-9.84867000
46.00000114,-9.79330700
46.50000113,-9.79330700
47.00000111,-9.85420700
47.50000110,-9.98400600
48.00000108,-9.92864100
48.50000107,-9.69119100
49.00000106,-9.63336600
49.50000104,-9.75209100
50.00000103,-9.86466500
50.50000101,-9.97293300
51.00000100,-9.96739700
51.50000099,-9.83759800
52.00000097,-9.83759800
52.50000096,-9.96739700
53.00000094,-9.96739700
53.50000093,-9.83759800
54.00000092,-9.83759800
54.50000090,-9.96739700
55.00000089,-9.97293300
55.50000087,-9.86466500
56.00000086,-9.75209100
56.50000084,-9.63336600
57.00000083,-9.68565500
57.50000082,-9.90157400
58.00000080,-10.06644000
58.50000079,-10.17470000
59.00000077,-10.11934000
59.50000076,-9.90342000
60.00000075,-9.74101800
60.50000073,-9.64382400
61.00000072,-9.64689900
61.50000070,-9.75516700
62.00000069,-9.86220500
62.50000067,-9.95939900
63.00000066,-10.01415000
63.50000065,-10.02522000
64.00000063,-9.91510800
64.50000062,-9.68811500
65.00000060,-9.63336600
65.50000059,-9.75209100
66.00000058,-9.86220500
66.50000056,-9.95939900
67.00000055,-10.00861000
67.50000053,-9.99753900
68.00000052,-9.99753900
68.50000051,-10.00861000
69.00000049,-9.95386200
69.50000048,-9.83452200
70.00000046,-9.83759800
70.50000045,-9.96739700
71.00000043,-9.96739700
71.50000042,-9.83759800
72.00000041,-9.83759800
72.50000039,-9.96739700
73.00000038,-9.97047100
73.50000036,-9.85113100
74.00000035,-9.79638200
74.50000034,-9.80745600
75.00000032,-9.80745600
75.50000031,-9.79638200
76.00000029,-9.85113100
76.50000028,-9.97047100
77.00000026,-9.97293300
77.50000025,-9.86466500
78.00000024,-9.75209100
78.50000022,-9.63336600
79.00000021,-9.68811500
79.50000019,-9.91510800
80.00000018,-10.02215000
80.50000017,-10.00062000
81.00000015,-9.99507800
81.50000014,-9.99507800
82.00000012,-9.99753900
82.50000011,-10.00861000
83.00000010,-9.95939900
83.50000008,-9.86220500
84.00000007,-9.75516700
84.50000005,-9.64689900
85.00000004,-9.64689900
85.50000002,-9.75516700
86.00000001,-9.85912800
86.50000000,-9.94586600
86.99999998,-10.05290000
87.49999997,-10.17163000
87.99999995,-10.11688000
88.49999994,-9.88988600
88.99999993,-9.77977300
89.49999991,-9.79084600
89.99999990,-9.84867000
90.49999988,-9.95632300
90.99999987,-10.00861000
91.49999985,-9.99753900
91.99999984,-10.00062000
92.49999983,-10.02215000
92.99999981,-9.91510800
93.49999980,-9.68811500
93.99999978,-9.63336600
94.49999977,-9.75209100
94.99999976,-9.86466500
95.49999974,-9.97293300
95.99999973,-9.97047100
96.49999971,-9.85113100
96.99999970,-9.79638200
97.49999969,-9.80745600
97.99999967,-9.80991600
98.49999966,-9.80991600
98.99999964,-9.80745600
99.49999963,-9.79638200
99.99999961,-9.84867000
100.49999960,-9.95632300
100.99999959,-10.01169000
101.49999957,-10.01169000
101.99999956,-9.95632300
102.49999954,-9.84867000
102.99999953,-9.79884200
103.49999952,-9.82098900
103.99999950,-9.76870100
104.49999949,-9.64936000
104.99999947,-9.64689900
105.49999946,-9.75516700
105.99999944,-9.86466500
106.49999943,-9.97293300
106.99999942,-9.97047100
107.49999940,-9.85113100
107.99999939,-9.79638200
108.49999937,-9.80745600
108.99999936,-9.80745600
109.49999935,-9.79638200
109.99999933,-9.84559500
110.49999932,-9.94279000
110.99999930,-10.05536000
111.49999929,-10.18516000
111.99999927,-10.07566000
112.49999926,-9.72933000
112.99999925,-9.62229300
113.49999923,-9.76316400
113.99999922,-9.82098900
114.49999920,-9.79884200
114.99999919,-9.85113100
115.49999918,-9.97047100
115.99999916,-9.96739700
116.49999915,-9.83759800
116.99999913,-9.83452200
117.49999912,-9.95386200
117.99999911,-10.01169000
118.49999909,-10.01169000
118.99999908,-9.95939900
119.49999906,-9.86220500
119.99999905,-9.75516700
120.49999903,-9.64689900
120.99999902,-9.64689900
121.49999901,-9.75516700
121.99999899,-9.86220500
122.49999898,-9.95939900
122.99999896,-10.00861000
123.49999895,-9.99753900
123.99999894,-9.99753900
124.49999892,-10.00861000
124.99999891,-9.95386200
125.49999889,-9.83452200
125.99999888,-9.83452200
126.49999886,-9.95386200
126.99999885,-10.01415000
127.49999884,-10.02522000
127.99999882,-9.91510800
128.49999881,-9.68811500
128.99999879,-9.63336600
129.49999878,-9.75209100
129.99999877,-9.85912800
130.49999875,-9.94586600
130.99999874,-10.05536000
131.49999872,-10.18516000
131.99999871,-10.07566000
132.49999870,-9.72933000
132.99999868,-9.61983200
133.49999867,-9.74963100
133.99999865,-9.86466500
134.49999864,-9.97293300
134.99999862,-9.97293300
135.49999861,-9.86466500
135.99999860,-9.75516700
136.49999858,-9.64689900
136.99999857,-9.64689900
137.49999855,-9.75516700
137.99999854,-9.86220500
138.49999853,-9.95939900
138.99999851,-10.00861000
139.49999850,-9.99753900
139.99999848,-9.99507800
140.49999847,-9.99507800
140.99999845,-9.99753900
141.49999844,-10.00861000
141.99999843,-9.95078800
142.49999841,-9.82098900
142.99999840,-9.87881400
143.49999838,-10.12795000
143.99999837,-10.13349000
144.49999836,-9.90649500
144.99999834,-9.73855800
145.49999833,-9.63029000
145.99999831,-9.68811500
146.49999830,-9.91510800
146.99999829,-10.02215000
147.49999827,-10.00062000
147.99999826,-9.99753900
148.49999824,-10.00861000
148.99999823,-9.95632300
149.49999821,-9.84867000
149.99999820,-9.79638200
150.49999819,-9.80745600
150.99999817,-9.81237700
151.49999816,-9.82344900
151.99999814,-9.76562400
152.49999813,-9.63582600
152.99999812,-9.68565500
153.49999810,-9.90157400
153.99999809,-10.06398000
154.49999807,-10.16117000
154.99999806,-10.15810000
155.49999804,-10.04983000
155.99999803,-9.94279000
156.49999802,-9.84559500
156.99999800,-9.79330700
157.49999799,-9.79330700
157.99999797,-9.84867000
158.49999796,-9.95632300
158.99999795,-10.01415000
159.49999793,-10.02522000
159.99999792,-9.91510800
160.49999790,-9.68811500
160.99999789,-9.63336600
161.49999787,-9.75209100
161.99999786,-9.86220500
162.49999785,-9.95939900
162.99999783,-10.01169000
163.49999782,-10.01169000
163.99999780,-9.95078800
164.49999779,-9.82098900
164.99999778,-9.87635300
165.49999776,-10.11380000
165.99999775,-10.16917000
166.49999773,-10.03937000
166.99999772,-9.98708100
167.49999771,-10.01968000
167.99999769,-9.91510800
168.49999768,-9.68811500
168.99999766,-9.63029000
169.49999765,-9.73855800
169.99999763,-9.90342000
170.49999762,-10.11934000
170.99999761,-10.17163000
171.49999759,-10.05290000
171.99999758,-9.94279000
172.49999756,-9.84559500
172.99999755,-9.79884200
173.49999754,-9.82098900
173.99999752,-9.76562400
174.49999751,-9.63582600
174.99999749,-9.69365100
175.49999748,-9.94279000
175.99999746,-9.94832700
176.49999745,-9.72133400
176.99999744,-9.55032000
177.49999742,-9.43159500
177.99999741,-9.54170700
178.49999739,-9.87696700
178.99999738,-10.04183000
179.49999737,-10.03076000
179.99999735,-9.91510800
180.49999734,-9.68811500
180.99999732,-9.63336600
181.49999731,-9.75209100
181.99999730,-9.86220500
182.49999728,-9.95939900
182.99999727,-10.00861000
183.49999725,-9.99753900
183.99999724,-9.99753900
184.49999722,-10.00861000
184.99999721,-9.95386200
185.49999720,-9.83452200
185.99999718,-9.84005800
186.49999717,-9.98092900
186.99999715,-9.92864100
187.49999714,-9.69119100
187.99999713,-9.63582600
188.49999711,-9.76562400
188.99999710,-9.82344900
189.49999708,-9.81237700
189.99999707,-9.80745600
190.49999705,-9.79638200
190.99999704,-9.85113100
191.49999703,-9.97047100
191.99999701,-9.97047100
192.49999700,-9.85113100
192.99999698,-9.79084600
193.49999697,-9.77977300
193.99999696,-9.88988600
194.49999694,-10.11688000
194.99999693,-10.17163000
195.49999691,-10.05290000
195.99999690,-9.94279000
196.49999689,-9.84559500
196.99999687,-9.79638200
197.49999686,-9.80745600
197.99999684,-9.80991600
198.49999683,-9.80991600
198.99999681,-9.81237700
199.49999680,-9.82344900
199.99999679,-9.76870100
200.49999677,-9.64936000
200.99999676,-9.64382400
201.49999674,-9.74101800
201.99999673,-9.90096000
202.49999672,-10.10581000
202.99999670,-10.21592000
203.49999669,-10.22699000
203.99999667,-10.06213000
204.49999666,-9.72687000
204.99999664,-9.62229300
205.49999663,-9.76316400
205.99999662,-9.81791200
206.49999660,-9.78531000
206.99999659,-9.89234600
207.49999657,-10.13041000
207.99999656,-10.13041000
208.49999655,-9.89234600
208.99999653,-9.77731200
209.49999652,-9.77731200
209.99999650,-9.88988600
210.49999649,-10.11688000
210.99999648,-10.17470000
211.49999646,-10.06644000
211.99999645,-9.90157400
212.49999643,-9.68565500
212.99999642,-9.63336600
213.49999640,-9.75209100
213.99999639,-9.86220500
214.49999638,-9.95939900
214.99999636,-10.01169000
215.49999635,-10.01169000
215.99999633,-9.95939900
216.49999632,-9.86220500
216.99999631,-9.75516700
217.49999629,-9.64689900
217.99999628,-9.64936000
218.49999626,-9.76870100
218.99999625,-9.82652600
219.49999623,-9.82652600
219.99999622,-9.76870100
220.49999621,-9.64936000
220.99999619,-9.64936000
221.49999618,-9.76870100
221.99999616,-9.82098900
222.49999615,-9.79884200
222.99999614,-9.84867000
223.49999612,-9.95632300
223.99999611,-10.00861000
224.49999609,-9.99753900
224.99999608,-9.99507800
225.49999606,-9.99507800
225.99999605,-9.99753900
226.49999604,-10.00861000
226.99999602,-9.95939900
227.49999601,-9.86220500
227.99999599,-9.75516700
228.49999598,-9.64689900
228.99999597,-9.64382400
229.49999595,-9.74101800
229.99999594,-9.90342000
230.49999592,-10.11934000
230.99999591,-10.16917000
231.49999590,-10.03937000
231.99999588,-9.98154500
232.49999587,-9.99261800
232.99999585,-9.99507800
233.49999584,-9.99507800
233.99999582,-10.00062000
234.49999581,-10.02215000
234.99999580,-9.91818300
235.49999578,-9.70164800
235.99999577,-9.59768700
236.49999575,-9.61921700
236.99999574,-9.61921700
237.49999573,-9.59768700
237.99999571,-9.70164800
238.49999570,-9.91818300
238.99999568,-10.02522000
239.49999567,-10.01415000
239.99999565,-9.95386200
240.49999564,-9.83452200
240.99999563,-9.83452200
241.49999561,-9.95386200
241.99999560,-10.01169000
242.49999558,-10.01169000
242.99999557,-9.95386200
243.49999556,-9.83452200
243.99999554,-9.83452200
244.49999553,-9.95386200
244.99999551,-10.00861000
245.49999550,-9.99753900
245.99999549,-9.99753900
246.49999547,-10.00861000
246.99999546,-9.95632300
247.49999544,-9.84867000
247.99999543,-9.79638200
248.49999541,-9.80745600
248.99999540,-9.80745600
249.49999539,-9.79638200
249.99999537,-9.85113100
250.49999536,-9.97047100
250.99999534,-9.96739700
251.49999533,-9.83759800
251.99999532,-9.83759800
252.49999530,-9.96739700
252.99999529,-9.97047100
253.49999527,-9.85113100
253.99999526,-9.79330700
254.49999524,-9.79330700
254.99999523,-9.85113100
255.49999522,-9.97047100
255.99999520,-9.97047100
256.49999519,-9.85113100
256.99999517,-9.79330700
257.49999516,-9.79330700
257.99999515,-9.84867000
258.49999513,-9.95632300
258.99999512,-10.01169000
259.49999510,-10.01169000
259.99999509,-9.95386200
260.49999508,-9.83452200
260.99999506,-9.83759800
261.49999505,-9.96739700
261.99999503,-9.97047100
262.49999502,-9.85113100
262.99999500,-9.79638200
263.49999499,-9.80745600
263.99999498,-9.80991600
264.49999496,-9.80991600
264.99999495,-9.80745600
265.49999493,-9.79638200
265.99999492,-9.84867000
266.49999491,-9.95632300
266.99999489,-10.01169000
267.49999488,-10.01169000
267.99999486,-9.95632300
268.49999485,-9.84867000
268.99999483,-9.79330700
269.49999482,-9.79330700
269.99999481,-9.84559500
270.49999479,-9.94279000
270.99999478,-10.05290000
271.49999476,-10.17163000
271.99999475,-10.11688000
272.49999474,-9.88988600
272.99999472,-9.77977300
273.49999471,-9.79084600
273.99999469,-9.84559500
274.49999468,-9.94279000
274.99999466,-10.05290000
275.49999465,-10.17163000
275.99999464,-10.11688000
276.49999462,-9.88988600
276.99999461,-9.77977300
277.49999459,-9.79084600
277.99999458,-9.85113100
278.49999457,-9.97047100
278.99999455,-9.97293300
279.49999454,-9.86466500
279.99999452,-9.75516700
280.49999451,-9.64689900
280.99999450,-9.64382400
281.49999448,-9.74101800
281.99999447,-9.90649500
282.49999445,-10.13349000
282.99999444,-10.12795000
283.49999442,-9.87881400
283.99999441,-9.82098900
284.49999440,-9.95078800
284.99999438,-10.00861000
285.49999437,-9.99753900
285.99999435,-9.99261800
286.49999434,-9.98154500
286.99999433,-10.04183000
287.49999431,-10.18270000
287.99999430,-10.07812000
288.49999428,-9.74286400
288.99999427,-9.58107800
289.49999425,-9.60260800
289.99999424,-9.66043300
290.49999423,-9.75762700
290.99999421,-9.86220500
291.49999420,-9.95939900
291.99999418,-10.00861000
292.49999417,-9.99753900
292.99999416,-9.99507800
293.49999414,-9.99507800
293.99999413,-9.99261800
294.49999411,-9.98154500
294.99999410,-10.03629000
295.49999409,-10.15563000
295.99999407,-10.15810000
296.49999406,-10.04983000
296.99999404,-9.94033000
297.49999403,-9.83206100
297.99999401,-9.83452200
298.49999400,-9.95386200
298.99999399,-10.00615000
299.49999397,-9.98400600
299.99999396,-10.03937000
300.49999394,-10.16917000
300.99999393,-10.11134000
301.49999392,-9.86220500
301.99999390,-9.86220500
302.49999389,-10.11134000
302.99999387,-10.17163000
303.49999386,-10.05290000
303.99999384,-9.94033000
304.49999383,-9.83206100
304.99999382,-9.83452200
305.49999380,-9.95386200
305.99999379,-10.00861000
306.49999377,-9.99753900
306.99999376,-10.00062000
307.49999375,-10.02215000
307.99999373,-9.91510800
308.49999372,-9.68811500
308.99999370,-9.63336600
309.49999369,-9.75209100
309.99999368,-9.86220500
310.49999366,-9.95939900
310.99999365,-10.01169000
311.49999363,-10.01169000
311.99999362,-9.95632300
312.49999360,-9.84867000
312.99999359,-9.79638200
313.49999358,-9.80745600
313.99999356,-9.81237700
314.49999355,-9.82344900
314.99999353,-9.76870100
315.49999352,-9.64936000
315.99999351,-9.64936000
316.49999349,-9.76870100
316.99999348,-9.82344900
317.49999346,-9.81237700
317.99999345,-9.80437900
318.49999343,-9.78284900
318.99999342,-9.89234600
319.49999341,-10.13041000
319.99999339,-10.13041000
320.49999338,-9.89234600
320.99999336,-9.77731200
321.49999335,-9.77731200
321.99999334,-9.88988600
322.49999332,-10.11688000
322.99999331,-10.17163000
323.49999329,-10.05290000
323.99999328,-9.94279000
324.49999327,-9.84559500
324.99999325,-9.79330700
325.49999324,-9.79330700
325.99999322,-9.84867000
326.49999321,-9.95632300
326.99999319,-10.01415000
327.49999318,-10.02522000
327.99999317,-9.91510800
328.49999315,-9.68811500
328.99999314,-9.63029000
329.49999312,-9.73855800
329.99999311,-9.90342000
330.49999310,-10.11934000
330.99999308,-10.16917000
331.49999307,-10.03937000
331.99999305,-9.98400600
332.49999304,-10.00615000
332.99999302,-9.95386200
333.49999301,-9.83452200
333.99999300,-9.83452200
334.49999298,-9.95386200
334.99999297,-10.01415000
335.49999295,-10.02522000
335.99999294,-9.91818300
336.49999293,-9.70164800
336.99999291,-9.59461100
337.49999290,-9.60568300
337.99999288,-9.66350800
338.49999287,-9.77116100
338.99999285,-9.82652600
339.49999284,-9.82652600
339.99999283,-9.76870100
340.49999281,-9.64936000
340.99999280,-9.64689900
341.49999278,-9.75516700
341.99999277,-9.86220500
342.49999276,-9.95939900
342.99999274,-10.00861000
343.49999273,-9.99753900
343.99999271,-9.99753900
344.49999270,-10.00861000
344.99999269,-9.95386200
345.49999267,-9.83452200
345.99999266,-9.83452200
346.49999264,-9.95386200
346.99999263,-10.01169000
347.49999261,-10.01169000
347.99999260,-9.95386200
348.49999259,-9.83452200
348.99999257,-9.83452200
349.49999256,-9.95386200
349.99999254,-10.00861000
350.49999253,-9.99753900
350.99999252,-9.99753900
351.49999250,-10.00861000
351.99999249,-9.95386200
352.49999247,-9.83452200
352.99999246,-9.83206100
353.49999244,-9.94033000
353.99999243,-10.04983000
354.49999242,-10.15810000
354.99999240,-10.15810000
355.49999239,-10.04983000
355.99999237,-9.94279000
356.49999236,-9.84559500
356.99999235,-9.79330700
357.49999233,-9.79330700
357.99999232,-9.84867000
358.49999230,-9.95632300
358.99999229,-10.01415000
359.49999228,-10.02522000
359.99999226,-9.91264700
360.49999225,-9.67458200
360.99999223,-9.66904400
361.49999222,-9.88496500
361.99999220,-10.10765000
362.49999219,-10.33464000
362.99999218,-10.27128000
363.49999216,-9.90403500
363.99999215,-9.84867000
364.49999213,-10.10827000
364.99999212,-10.17163000
365.49999211,-10.05290000
365.99999209,-9.94033000
366.49999208,-9.83206100
366.99999206,-9.83452200
367.49999205,-9.95386200
367.99999203,-10.01169000
368.49999202,-10.01169000
368.99999201,-9.95386200
369.49999199,-9.83452200
369.99999198,-9.83759800
370.49999196,-9.96739700
370.99999195,-9.97047100
371.49999194,-9.85113100
371.99999192,-9.79638200
372.49999191,-9.80745600
372.99999189,-9.80437900
373.49999188,-9.78284900
373.99999187,-9.89234600
374.49999185,-10.13041000
374.99999184,-10.13041000
375.49999182,-9.89234600
375.99999181,-9.78284900
376.49999179,-9.80437900
376.99999178,-9.80745600
377.49999177,-9.79638200
377.99999175,-9.85113100
378.49999174,-9.97047100
378.99999172,-9.96739700
379.49999171,-9.83759800
379.99999170,-9.83759800
380.49999168,-9.96739700
380.99999167,-9.97293300
381.49999165,-9.86466500
381.99999164,-9.75209100
382.49999162,-9.63336600
382.99999161,-9.69365100
383.49999160,-9.94279000
383.99999158,-9.94525100
384.49999157,-9.70718500
384.99999155,-9.59768700
385.49999154,-9.61921700
385.99999153,-9.62229300
386.49999151,-9.61122000
386.99999150,-9.66596900
387.49999148,-9.78531000
387.99999147,-9.78223300
388.49999145,-9.65243500
388.99999144,-9.64382400
389.49999143,-9.74101800
389.99999141,-9.90342000
390.49999140,-10.11934000
390.99999138,-10.17470000
391.49999137,-10.06644000
391.99999136,-9.90157400
392.49999134,-9.68565500
392.99999133,-9.63336600
393.49999131,-9.75209100
393.99999130,-9.86774200
394.49999129,-9.98646600
394.99999127,-9.92864100
395.49999126,-9.69119100
395.99999124,-9.63890200
396.49999123,-9.77977300
396.99999121,-9.78223300
397.49999120,-9.65243500
397.99999119,-9.64689900
398.49999117,-9.75516700
398.99999116,-9.86466500
399.49999114,-9.97293300
399.99999113,-9.97293300
400.49999112,-9.86466500
400.99999110,-9.75209100
401.49999109,-9.63336600
401.99999107,-9.68811500
402.49999106,-9.91510800
402.99999104,-10.02215000
403.49999103,-10.00062000
403.99999102,-9.99261800
404.49999100,-9.98154500
404.99999099,-10.03629000
405.49999097,-10.15563000
405.99999096,-10.15563000
406.49999095,-10.03629000
406.99999093,-9.98154500
407.49999092,-9.99261800
407.99999090,-9.99753900
408.49999089,-10.00861000
408.99999088,-9.95386200
409.49999086,-9.83452200
409.99999085,-9.83452200
410.49999083,-9.95386200
410.99999082,-10.00615000
411.49999080,-9.98400600
411.99999079,-10.03629000
412.49999078,-10.15563000
412.99999076,-10.15810000
413.49999075,-10.04983000
413.99999073,-9.94033000
414.49999072,-9.83206100
414.99999071,-9.83759800
415.49999069,-9.96739700
415.99999068,-9.97047100
416.49999066,-9.85113100
416.99999065,-9.79330700
417.49999063,-9.79330700
417.99999062,-9.84867000
418.49999061,-9.95632300
418.99999059,-10.01169000
419.49999058,-10.01169000
419.99999056,-9.95386200
420.49999055,-9.83452200
420.99999054,-9.83759800
421.49999052,-9.96739700
421.99999051,-9.96493600
422.49999049,-9.82406500
422.99999048,-9.87881400
423.49999047,-10.12795000
423.99999045,-10.13041000
424.49999044,-9.89234600
424.99999042,-9.77977300
425.49999041,-9.79084600
425.99999039,-9.85420700
426.49999038,-9.98400600
426.99999037,-9.93171700
427.49999035,-9.70472400
427.99999034,-9.59461100
428.49999032,-9.60568300
428.99999031,-9.66350800
429.49999030,-9.77116100
429.99999028,-9.82098900
430.49999027,-9.79884200
430.99999025,-9.85113100
431.49999024,-9.97047100
431.99999022,-9.97047100
432.49999021,-9.85113100
432.99999020,-9.79330700
433.49999018,-9.79330700
433.99999017,-9.84867000
434.49999015,-9.95632300
434.99999014,-10.00861000
435.49999013,-9.99753900
435.99999011,-9.99753900
436.49999010,-10.00861000
436.99999008,-9.95632300
437.49999007,-9.84867000
437.99999006,-9.79330700
438.49999004,-9.79330700
438.99999003,-9.84867000
439.49999001,-9.95632300
439.99999000,-10.00861000
440.49998998,-9.99753900
440.99998997,-9.99753900
441.49998996,-10.00861000
441.99998994,-9.95939900
442.49998993,-9.86220500
442.99998991,-9.75762700
443.49998990,-9.66043300
443.99998989,-9.61368100
444.49998987,-9.63582600
444.99998986,-9.58353800
445.49998984,-9.46419700
445.99998983,-9.46173700
446.49998981,-9.57000400
446.99998980,-9.67950200
447.49998979,-9.78777000
447.99998977,-9.78223300
448.49998976,-9.65243500
448.99998974,-9.64689900
449.49998973,-9.75516700
449.99998972,-9.86466500
450.49998970,-9.97293300
450.99998969,-9.97293300
451.49998967,-9.86466500
451.99998966,-9.75209100
452.49998964,-9.63336600
452.99998963,-9.68811500
453.49998962,-9.91510800
453.99998960,-10.02215000
454.49998959,-10.00062000
454.99998957,-9.99753900
455.49998956,-10.00861000
455.99998955,-9.95386200
456.49998953,-9.83452200
456.99998952,-9.83206100
457.49998950,-9.94033000
457.99998949,-10.04737000
458.49998948,-10.14456000
458.99998946,-10.19931000
459.49998945,-10.21038000
459.99998943,-10.10335000
460.49998942,-9.88681100
460.99998940,-9.78531000
461.49998939,-9.81791200
461.99998938,-9.76562400
462.49998936,-9.63582600
462.99998935,-9.69119100
463.49998933,-9.92864100
463.99998932,-9.98092900
464.49998931,-9.84005800
464.99998929,-9.83452200
465.49998928,-9.95386200
465.99998926,-10.01415000
466.49998925,-10.02522000
466.99998923,-9.91818300
467.49998922,-9.70164800
467.99998921,-9.59215000
468.49998919,-9.59215000
468.99998918,-9.69918700
469.49998916,-9.90403500
469.99998915,-10.06398000
470.49998914,-10.16117000
470.99998912,-10.15810000
471.49998911,-10.04983000
471.99998909,-9.94279000
472.49998908,-9.84559500
472.99998907,-9.79638200
473.49998905,-9.80745600
473.99998904,-9.80745600
474.49998902,-9.79638200
474.99998901,-9.84867000
475.49998899,-9.95632300
475.99998898,-10.01169000
476.49998897,-10.01169000
476.99998895,-9.95386200
477.49998894,-9.83452200
477.99998892,-9.83452200
478.49998891,-9.95386200
478.99998890,-10.01415000
479.49998888,-10.02522000
479.99998887,-9.91510800
480.49998885,-9.68811500
480.99998884,-9.63336600
481.49998882,-9.75209100
481.99998881,-9.86774200
482.49998880,-9.98646600
482.99998878,-9.93171700
483.49998877,-9.70472400
483.99998875,-9.59461100
484.49998874,-9.60568300
484.99998873,-9.65797200
485.49998871,-9.74409400
485.99998870,-9.90342000
486.49998868,-10.11934000
486.99998867,-10.17163000
487.49998866,-10.05290000
487.99998864,-9.94279000
488.49998863,-9.84559500
488.99998861,-9.79638200
489.49998860,-9.80745600
489.99998858,-9.81237700
490.49998857,-9.82344900
490.99998856,-9.76870100
491.49998854,-9.64936000
491.99998853,-9.64689900
492.49998851,-9.75516700
492.99998850,-9.86220500
493.49998849,-9.95939900
493.99998847,-10.00861000
494.49998846,-9.99753900
494.99998844,-9.99753900
495.49998843,-10.00861000
495.99998841,-9.95632300
496.49998840,-9.84867000
496.99998839,-9.79330700
497.49998837,-9.79330700
497.99998836,-9.85420700
498.49998834,-9.98400600
498.99998833,-9.92618100
499.49998832,-9.67704200
499.99998830,-9.67458200
500.49998829,-9.91264700
500.99998827,-10.02215000
501.49998826,-10.00062000
501.99998824,-9.99507800
502.49998823,-9.99507800
502.99998822,-10.00062000
503.49998820,-10.02215000
503.99998819,-9.91510800
504.49998817,-9.68811500
504.99998816,-9.62783000
505.49998815,-9.72502400
505.99998813,-9.94463500
506.49998812,-10.27990000
506.99998810,-10.32665000
507.49998809,-10.06705000
507.99998808,-10.01169000
508.49998806,-10.16363000
508.99998805,-10.11934000
509.49998803,-9.90342000
509.99998802,-9.74101800
510.49998800,-9.64382400
510.99998799,-9.65243500
511.49998798,-9.78223300
511.99998796,-9.78531000
512.49998795,-9.66596900
512.99998793,-9.60568300
513.49998792,-9.59461100
513.99998791,-9.70164800
514.49998789,-9.91818300
514.99998788,-10.02522000
515.49998786,-10.01415000
515.99998785,-9.95632300
516.49998783,-9.84867000
516.99998782,-9.79330700
517.49998781,-9.79330700
517.99998779,-9.84867000
518.49998778,-9.95632300
518.99998776,-10.01415000
519.49998775,-10.02522000
519.99998774,-9.91510800
520.49998772,-9.68811500
520.99998771,-9.63029000
521.49998769,-9.73855800
521.99998768,-9.90342000
522.49998767,-10.11934000
522.99998765,-10.16917000
523.49998764,-10.03937000
523.99998762,-9.98400600
524.49998761,-10.00615000
524.99998759,-9.95939900
525.49998758,-9.86220500
525.99998757,-9.75209100
526.49998755,-9.63336600
526.99998754,-9.68811500
527.49998752,-9.91510800
527.99998751,-10.02522000
528.49998750,-10.01415000
528.99998748,-9.95078800
529.49998747,-9.82098900
529.99998745,-9.87635300
530.49998744,-10.11380000
530.99998742,-10.16917000
531.49998741,-10.03937000
531.99998740,-9.98154500
532.49998738,-9.99261800
532.99998737,-9.99261800
533.49998735,-9.98154500
533.99998734,-10.03629000
534.49998733,-10.15563000
534.99998731,-10.15563000
535.49998730,-10.03629000
535.99998728,-9.98154500
536.49998727,-9.99261800
536.99998726,-9.99507800
537.49998724,-9.99507800
537.99998723,-10.00062000
538.49998721,-10.02215000
538.99998720,-9.91264700
539.49998718,-9.67458200
539.99998717,-9.68011800
540.49998716,-9.93971300
540.99998714,-9.94832700
541.49998713,-9.72133400
541.99998711,-9.55339500
542.49998710,-9.44512700
542.99998709,-9.50602800
543.49998707,-9.74347900
543.99998706,-9.79884200
544.49998704,-9.66904400
544.99998703,-9.60814500
545.49998701,-9.60814500
545.99998700,-9.66596900
546.49998699,-9.78531000
546.99998697,-9.78223300
547.49998696,-9.65243500
547.99998694,-9.64689900
548.49998693,-9.75516700
548.99998692,-9.86220500
549.49998690,-9.95939900
549.99998689,-10.00861000
550.49998687,-9.99753900
550.99998686,-9.99507800
551.49998685,-9.99507800
551.99998683,-9.99507800
552.49998682,-9.99507800
552.99998680,-9.98954200
553.49998679,-9.96801100
553.99998677,-10.08305000
554.49998676,-10.34264000
554.99998675,-10.23007000
555.49998673,-9.74347900
555.99998672,-9.68872900
556.49998670,-10.06705000
556.99998669,-10.18824000
557.49998668,-10.06951000
557.99998666,-9.89050200
558.49998665,-9.63090500
558.99998663,-9.78715500
559.49998662,-10.33834000
559.99998660,-10.67114000
560.49998659,-10.77940000
560.99998658,-10.59793000
561.49998656,-10.21038000
561.99998655,-9.18860700
562.49998653,-7.72084100
562.99998652,-6.48499000
563.49998651,-5.68713100
563.99998649,-5.22330200
564.49998648,-5.27805100
564.99998646,-4.95140200
565.49998645,-4.36823300
565.99998643,-3.79982800
566.49998642,-3.33599900
566.99998641,-3.04502900
567.49998639,-3.01365600
567.99998638,-2.89001000
568.49998636,-2.76082700
568.99998635,-2.31360700
569.49998634,-1.65538900
569.99998632,-0.93319390
570.49998631,-0.26390250
570.99998629,0.13964070
571.49998628,0.19254430
571.99998627,0.13533460
572.49998625,-0.03690945
572.99998624,-0.38508860
573.49998622,-0.82738670
573.99998621,-1.45361700
574.49998619,-2.17704200
574.99998618,-2.44894200
575.49998617,-2.25455200
575.99998615,-1.66154000
576.49998614,-0.71112200
576.99998612,-0.21653540
577.49998611,-0.19500490
577.99998610,-0.77448320
578.49998608,-1.88668800
578.99998607,-2.84756400
579.49998605,-3.57098900
579.99998604,-3.49163400
580.49998602,-2.56213100
580.99998601,-2.05647100
581.49998600,-1.97034900
581.99998598,-2.24778500
582.49998597,-2.88508800
582.99998595,-3.30278000
583.49998594,-3.44242100
583.99998593,-3.57960100
584.49998591,-3.65465000
584.99998590,-3.76476400
585.49998588,-3.90563500
585.99998587,-3.76845500
586.49998586,-3.41227800
586.99998584,-2.78912400
587.49998583,-1.99064900
587.99998581,-1.44377500
588.49998580,-1.17310500
588.99998578,-1.72797700
589.49998577,-2.99028000
589.99998576,-4.45435500
590.49998574,-5.92212100
590.99998573,-6.75196800
591.49998571,-6.81655900
591.99998570,-6.28875500
592.49998569,-5.23129900
592.99998567,-3.98129900
593.49998566,-2.71899600
593.99998564,-1.93282500
594.49998563,-1.72797700
594.99998561,-2.24163400
595.49998560,-3.38521100
595.99998559,-4.83575300
596.49998557,-6.36811000
596.99998556,-7.51660900
597.49998554,-8.12069400
597.99998553,-7.79404500
598.49998552,-6.55204200
598.99998550,-5.33218500
599.49998549,-4.26365700
599.99998547,-3.74753900
600.49998546,-3.86626500
600.99998545,-4.44881900
601.49998543,-5.43122500
601.99998542,-6.37303100
602.49998540,-7.14997500
602.99998539,-7.44955700
603.49998537,-7.20103300
603.99998536,-6.81348400
604.49998535,-6.29490600
604.99998533,-6.01747000
605.49998532,-5.98486700
605.99998530,-6.38041300
606.49998529,-7.10260800
606.99998528,-8.20435500
607.49998526,-9.54355200
607.99998525,-10.13964000
608.49998523,-9.95632300
608.99998522,-9.01144100
609.49998520,-7.42433500
609.99998519,-5.98794300
610.49998518,-4.84313400
610.99998516,-4.88435000
611.49998515,-6.08267700
611.99998513,-7.76943800
612.49998512,-9.74470900
612.99998511,-11.04946000
613.49998509,-11.50221000
613.99998508,-11.12820000
614.49998506,-9.96247500
614.99998505,-8.44918800
615.49998503,-6.79810500
615.99998502,-5.64714500
616.49998501,-5.15071300
616.99998499,-5.57148100
617.49998498,-6.85531500
617.99998496,-8.37167700
618.49998495,-9.91510800
618.99998494,-10.95595000
619.49998492,-11.34473000
619.99998491,-10.92397000
620.49998489,-9.74778500
620.99998488,-8.31938900
621.49998487,-6.79687500
621.99998485,-6.16264700
622.49998484,-6.48683500
622.99998482,-7.44832600
623.49998481,-8.95915300
623.99998479,-10.10765000
624.49998478,-10.73327000
624.99998477,-10.92827000
625.49998475,-10.63669000
625.99998474,-9.96370500
626.49998472,-9.01451800
626.99998471,-8.02288300
627.49998470,-7.12659900
627.99998468,-6.80548700
628.49998467,-7.08538300
628.99998465,-7.92876400
629.49998464,-9.23535900
629.99998462,-10.23807000
630.49998461,-10.82123000
630.99998460,-10.76587000
631.49998458,-10.07505000
631.99998457,-9.06926600
632.49998455,-7.86048200
632.99998454,-7.17089000
633.49998453,-7.07431000
633.99998451,-7.60396100
634.49998450,-8.70509300
634.99998448,-9.75455200
635.49998447,-10.61823000
635.99998446,-11.01624000
636.49998444,-10.85384000
636.99998443,-10.58440000
637.49998441,-10.22822000
637.99998440,-9.70349400
638.49998438,-9.07787800
638.99998437,-8.86626400
639.49998436,-9.09264300
639.99998434,-9.45496900
640.49998433,-9.89726800
640.99998431,-10.50996000
641.49998430,-11.17864000
641.99998429,-11.70891000
642.49998427,-12.04417000
642.99998426,-11.79134000
643.49998424,-11.00394000
643.99998423,-10.05352000
644.49998421,-9.04896600
644.99998420,-8.58759800
645.49998419,-8.75061500
645.99998417,-9.07418700
646.49998416,-9.53801600
646.99998414,-10.11749000
647.49998413,-10.74434000
647.99998412,-10.89567000
648.49998410,-10.53888000
648.99998409,-10.21161000
649.49998407,-9.93110200
649.99998406,-9.73609600
650.49998405,-9.68257800
650.99998403,-9.53371000
651.49998402,-9.32886300
651.99998400,-9.22182600
652.49998399,-9.22182600
652.99998397,-9.33132400
653.49998396,-9.54785900
653.99998395,-9.65182000
654.49998393,-9.63029000
654.99998392,-9.63029000
655.49998390,-9.65182000
655.99998389,-9.54232200
656.49998388,-9.30425600
656.99998386,-9.30118100
657.49998385,-9.52817300
657.99998383,-9.69365100
658.49998382,-9.79084600
658.99998380,-9.78223300
659.49998379,-9.65243500
659.99998378,-9.65489600
660.49998376,-9.79576800
660.99998375,-9.76316400
661.49998373,-9.60137700
661.99998372,-9.18368500
662.49998371,-8.56852800
662.99998369,-8.19205200
663.49998368,-8.08439900
663.99998366,-8.33661400
664.49998365,-8.89763700
664.99998364,-9.67519700
665.49998362,-10.54934000
665.99998361,-11.17618000
666.49998359,-11.46715000
666.99998358,-11.30475000
667.49998356,-10.70066000
667.99998355,-10.01353000
668.49998354,-9.32332600
668.99998352,-8.96346000
669.49998351,-8.99606200
669.99998349,-9.20767700
670.49998348,-9.57369500
670.99998347,-10.09043000
671.49998345,-10.67360000
671.99998344,-11.08514000
672.49998342,-11.25738000
672.99998341,-11.25184000
673.49998339,-11.05807000
673.99998338,-10.74188000
674.49998337,-10.34264000
674.99998335,-10.08182000
675.49998334,-9.99507800
675.99998332,-10.05290000
676.49998331,-10.25837000
676.99998330,-10.47552000
677.49998328,-10.69144000
677.99998327,-10.69451000
678.49998325,-10.48905000
678.99998324,-10.22515000
679.49998322,-9.93356200
679.99998321,-9.71641300
680.49998320,-9.58661400
680.99998318,-9.79576800
681.49998317,-10.31434000
681.99998315,-10.74249000
682.49998314,-11.04454000
682.99998313,-11.04208000
683.49998311,-10.72896000
683.99998310,-10.36663000
684.49998308,-10.01046000
684.99998307,-9.60137700
685.49998306,-9.21321300
685.99998304,-9.00159900
686.49998303,-8.99052600
686.99998301,-9.26550100
687.49998300,-9.81606800
687.99998298,-10.03014000
688.49998297,-9.88927200
688.99998296,-9.72440900
689.49998294,-9.54109200
689.99998293,-9.33809100
690.49998291,-9.15477300
690.99998290,-8.99606200
691.49998289,-8.87672100
691.99998287,-8.97576200
692.49998286,-9.26673100
692.99998284,-9.62906000
693.49998283,-10.00677000
693.99998281,-10.31188000
694.49998280,-10.48474000
694.99998279,-10.58624000
695.49998277,-10.59732000
695.99998276,-10.43492000
696.49998274,-10.11073000
696.99998273,-9.94586600
697.49998272,-9.94586600
697.99998270,-10.11073000
698.49998269,-10.43492000
698.99998267,-10.59178000
699.49998266,-10.55856000
699.99998265,-10.55856000
700.49998263,-10.59178000
700.99998262,-10.43492000
701.49998260,-10.11073000
701.99998259,-9.95140200
702.49998257,-9.97293300
702.99998256,-10.03383000
703.49998255,-10.14149000
703.99998253,-10.19131000
704.49998252,-10.16917000
704.99998250,-10.22146000
705.49998249,-10.34080000
705.99998248,-10.34326000
706.49998246,-10.23499000
706.99998245,-10.13349000
707.49998243,-10.05844000
707.99998242,-9.89849900
708.49998240,-9.67150600
708.99998239,-9.66350800
709.49998238,-9.85789800
709.99998236,-10.17655000
710.49998235,-10.58686000
710.99998233,-10.79294000
711.49998232,-10.76033000
711.99998231,-10.70558000
712.49998229,-10.62992000
712.99998228,-10.42138000
713.49998226,-10.10827000
713.99998225,-9.95693900
714.49998224,-10.00062000
714.99998222,-9.95939900
715.49998221,-9.86220500
715.99998219,-9.75762700
716.49998218,-9.66043300
716.99998216,-9.62229300
717.49998215,-9.67642700
717.99998214,-9.46788800
718.49998212,-9.02497500
718.99998211,-8.85519100
719.49998209,-8.95177200
719.99998208,-9.27595900
720.49998207,-9.80499500
720.99998205,-10.07136000
721.49998204,-10.04983000
721.99998202,-9.89296200
722.49998201,-9.62352300
722.99998199,-9.20583200
723.49998198,-8.69894100
723.99998197,-8.42396500
724.49998195,-8.39136300
724.99998194,-8.80905400
725.49998192,-9.61860200
725.99998191,-10.29712000
726.49998190,-10.75049000
726.99998188,-11.00271000
727.49998187,-11.00271000
727.99998185,-10.73634000
728.49998184,-10.22884000
728.99998182,-9.80868600
729.49998181,-9.52755900
729.99998180,-9.43159500
730.49998178,-9.55032000
730.99998177,-9.71579600
731.49998175,-9.92064400
731.99998174,-10.02215000
732.49998173,-10.00062000
732.99998171,-10.00308000
733.49998170,-10.03629000
733.99998168,-9.87389300
734.49998167,-9.52817300
734.99998166,-9.47034800
735.49998164,-9.69734200
735.99998163,-9.91141600
736.49998161,-10.09473000
736.99998160,-10.24606000
737.49998158,-10.33218000
737.99998157,-10.39309000
738.49998156,-10.43615000
738.99998154,-10.17532000
739.49998153,-9.64628400
739.99998151,-9.32148100
740.49998150,-9.22428600
740.99998149,-9.37869100
741.49998147,-9.75639700
741.99998146,-10.27805000
742.49998144,-10.87168000
742.99998143,-11.24262000
743.49998141,-11.35027000
743.99998140,-11.08944000
744.49998139,-10.49582000
744.99998137,-9.86466500
745.49998136,-9.27103800
745.99998134,-9.01820900
746.49998133,-9.15846400
746.99998132,-9.37807500
747.49998130,-9.66966000
747.99998129,-9.92495100
748.49998127,-10.09781000
748.99998126,-10.25160000
749.49998125,-10.35987000
749.99998123,-10.31004000
750.49998122,-10.11565000
750.99998120,-9.85482300
751.49998119,-9.56323800
751.99998117,-9.34916300
752.49998116,-9.22982200
752.99998115,-9.38668800
753.49998113,-9.79699800
753.99998112,-10.16548000
754.49998110,-10.44599000
754.99998109,-10.60531000
755.49998108,-10.62685000
755.99998106,-10.35495000
756.49998105,-9.80376400
756.99998103,-9.59522600
757.49998102,-9.75762700
757.99998100,-9.81545200
758.49998099,-9.77177600
758.99998098,-9.93110200
759.49998096,-10.27682000
759.99998095,-10.32911000
760.49998093,-10.08059000
760.99998092,-9.97354800
761.49998091,-10.01661000
761.99998089,-9.92618100
762.49998088,-9.74286400
762.99998086,-9.47342500
763.49998085,-9.13877900
763.99998084,-9.14185500
764.49998082,-9.48757400
764.99998081,-9.70164800
765.49998079,-9.76624000
765.99998078,-9.86466500
766.49998076,-9.97293300
766.99998075,-9.97846900
767.49998074,-9.89234600
767.99998072,-9.67519700
768.49998071,-9.33993500
768.99998069,-9.28211000
769.49998068,-9.49864600
769.99998067,-9.76501000
770.49998065,-10.05659000
770.99998064,-10.25714000
771.49998062,-10.32173000
771.99998061,-10.42323000
772.49998059,-10.54195000
772.99998058,-10.48413000
773.49998057,-10.24668000
773.99998055,-10.18578000
774.49998054,-10.29404000
774.99998052,-10.46444000
775.49998051,-10.70251000
775.99998050,-10.64715000
776.49998048,-10.30143000
776.99998047,-10.13902000
777.49998045,-10.17224000
777.99998044,-10.18270000
778.49998043,-10.19377000
778.99998041,-10.13902000
779.49998040,-10.01968000
779.99998038,-10.02276000
780.49998037,-10.15256000
780.99998035,-10.16117000
781.49998034,-10.06398000
781.99998033,-9.90157400
782.49998031,-9.68565500
782.99998030,-9.64443900
783.49998028,-9.80684000
783.99998027,-9.70533900
784.49998026,-9.35900500
784.99998024,-9.24397100
785.49998023,-9.35162400
785.99998021,-9.57431000
786.49998020,-9.90957200
786.99998018,-9.96186000
787.49998017,-9.72379400
787.99998016,-9.55893100
788.49998014,-9.47280900
788.99998013,-9.42298100
789.49998011,-9.42298100
789.99998010,-9.47527000
790.49998009,-9.57246500
790.99998007,-9.68503900
791.49998006,-9.81483700
791.99998004,-9.70533900
792.49998003,-9.35900500
792.99998001,-9.24950800
793.49998000,-9.37930500
793.99997999,-9.48634300
794.49997997,-9.56139200
794.99997996,-9.71272100
795.49997994,-9.90711100
795.99997993,-10.06090000
796.49997992,-10.14702000
796.99997990,-10.20239000
797.49997989,-10.22392000
797.99997987,-10.05659000
798.49997986,-9.69918700
798.99997985,-9.69918700
799.49997983,-10.05659000
799.99997982,-10.22146000
800.49997980,-10.18824000
800.99997979,-10.17470000
801.49997977,-10.15317000
801.99997976,-10.26021000
802.49997975,-10.48720000
802.99997973,-10.53949000
803.49997972,-10.40969000
803.99997970,-10.35187000
804.49997969,-10.36294000
804.99997968,-10.36294000
805.49997966,-10.35187000
805.99997965,-10.40662000
806.49997963,-10.52596000
806.99997962,-10.52842000
807.49997960,-10.42015000
807.99997959,-10.31619000
808.49997958,-10.22945000
808.99997956,-10.12242000
809.49997955,-10.00369000
809.99997953,-10.05844000
810.49997952,-10.28543000
810.99997951,-10.39247000
811.49997949,-10.37094000
811.99997948,-10.37094000
812.49997946,-10.39247000
812.99997945,-10.29097000
813.49997944,-10.08612000
813.99997942,-9.92925600
814.49997941,-9.84313500
814.99997939,-9.79884200
815.49997938,-9.82098900
815.99997936,-9.77116100
816.49997935,-9.66350800
816.99997934,-9.60568300
817.49997932,-9.59461100
817.99997931,-9.70718500
818.49997929,-9.94525100
818.99997928,-9.95078800
819.49997927,-9.73486600
819.99997925,-9.52017700
820.49997924,-9.32578700
820.99997922,-9.22182600
821.49997921,-9.22182600
821.99997919,-9.32886300
822.49997918,-9.53371000
822.99997917,-9.69365100
823.49997915,-9.79084600
823.99997914,-9.78777000
824.49997912,-9.67950200
824.99997911,-9.56446800
825.49997910,-9.43466900
825.99997908,-9.53617100
826.49997907,-9.84928600
826.99997905,-10.11565000
827.49997904,-10.31004000
827.99997903,-10.35125000
828.49997901,-10.21038000
828.99997900,-10.20485000
829.49997898,-10.32419000
829.99997897,-10.38201000
830.49997895,-10.38201000
830.99997894,-10.33526000
831.49997893,-10.25960000
831.99997891,-10.03998000
832.49997890,-9.68319300
832.99997888,-9.73240600
833.49997887,-10.17532000
833.99997886,-10.49459000
834.49997884,-10.65576000
834.99997883,-10.81262000
835.49997881,-10.94242000
835.99997880,-10.78310000
836.49997878,-10.35064000
836.99997877,-10.08428000
837.49997876,-10.00923000
837.99997874,-10.01169000
838.49997873,-10.09781000
838.99997871,-10.31804000
839.49997870,-10.66375000
839.99997869,-10.65822000
840.49997867,-10.29035000
840.99997866,-10.18086000
841.49997864,-10.33218000
841.99997863,-10.34633000
842.49997861,-10.24914000
842.99997860,-10.08366000
843.49997859,-9.85666800
843.99997857,-9.86527900
844.49997856,-10.12488000
844.99997854,-10.12795000
845.49997853,-9.87881400
845.99997852,-9.82406500
846.49997850,-9.96493600
846.99997849,-9.98092900
847.49997847,-9.90588100
847.99997846,-9.63951700
848.49997845,-9.20767700
848.99997843,-9.04835000
849.49997842,-9.17753400
849.99997840,-9.34485600
850.49997839,-9.55032000
850.99997837,-9.65735700
851.49997836,-9.65735700
851.99997835,-9.54785900
852.49997833,-9.33132400
852.99997832,-9.22428600
853.49997830,-9.23535900
853.99997829,-9.29010800
854.49997828,-9.38730200
854.99997826,-9.48634300
855.49997825,-9.56139200
855.99997823,-9.71579600
856.49997822,-9.92064400
856.99997820,-10.02215000
857.49997819,-10.00062000
857.99997818,-9.99753900
858.49997816,-10.00861000
858.99997815,-9.95632300
859.49997813,-9.84867000
859.99997812,-9.78777000
860.49997811,-9.76624000
860.99997809,-9.92556500
861.49997808,-10.24975000
861.99997806,-10.40908000
862.49997805,-10.38755000
862.99997804,-10.34080000
863.49997802,-10.28728000
863.99997801,-9.97108700
864.49997799,-9.43097900
864.99997798,-9.21629000
865.49997796,-9.34608700
865.99997795,-9.56323800
866.49997794,-9.85482300
866.99997792,-10.11319000
867.49997791,-10.29650000
867.99997789,-10.39555000
868.49997788,-10.38447000
868.99997787,-10.32972000
869.49997785,-10.23253000
869.99997784,-10.12795000
870.49997782,-10.03076000
870.99997781,-9.98154500
871.49997779,-9.99261800
871.99997778,-9.99261800
872.49997777,-9.98154500
872.99997775,-10.03076000
873.49997774,-10.12795000
873.99997772,-10.23807000
874.49997771,-10.35679000
874.99997770,-10.30204000
875.49997768,-10.07505000
875.99997767,-9.96801100
876.49997765,-9.98954200
876.99997764,-9.99507800
877.49997763,-9.99507800
877.99997761,-9.98954200
878.49997760,-9.96801100
878.99997758,-10.08305000
879.49997757,-10.34264000
879.99997755,-10.24422000
880.49997754,-9.81176100
880.99997753,-9.48757400
881.49997751,-9.29318400
881.99997750,-9.30118100
882.49997748,-9.52817300
882.99997747,-9.68811500
883.49997746,-9.76316400
883.99997744,-9.86220500
884.49997743,-9.95939900
884.99997741,-10.00861000
885.49997740,-9.99753900
885.99997738,-9.99753900
886.49997737,-10.00861000
886.99997736,-9.96186000
887.49997734,-9.87573700
887.99997733,-9.71333600
888.49997731,-9.48634300
888.99997730,-9.48388300
889.49997729,-9.69980200
889.99997727,-9.92003000
890.49997726,-10.13595000
890.99997724,-10.13041000
891.49997723,-9.89234600
891.99997722,-9.78838500
892.49997720,-9.83144700
892.99997719,-9.72748500
893.49997717,-9.48941900
893.99997716,-9.48634300
894.49997714,-9.71333600
894.99997713,-9.87573700
895.49997712,-9.96186000
895.99997710,-10.01415000
896.49997709,-10.02522000
896.99997707,-9.91818300
897.49997706,-9.70164800
897.99997705,-9.59215000
898.49997703,-9.59215000
898.99997702,-9.70164800
899.49997700,-9.91818300
899.99997699,-10.02522000
900.49997697,-10.01415000
900.99997696,-9.95078800
901.49997695,-9.82098900
901.99997693,-9.87635300
902.49997692,-10.11380000
