Time,Channel B
(ns),(mV)

-100.99999470,-9.63582600
-100.49999472,-9.76562400
-99.99999473,-9.82344900
-99.49999474,-9.81237700
-98.99999476,-9.80991600
-98.49999477,-9.80991600
-97.99999479,-9.80745600
-97.49999480,-9.79638200
-96.99999481,-9.84867000
-96.49999483,-9.95632300
-95.99999484,-10.00861000
-95.49999486,-9.99753900
-94.99999487,-10.00615000
-94.49999488,-10.04983000
-93.99999490,-9.83821400
-93.49999491,-9.39468400
-92.99999493,-9.23289900
-92.49999494,-9.36269600
-91.99999496,-9.52755900
-91.49999497,-9.72194900
-90.99999498,-9.87881400
-90.49999500,-9.97600800
-89.99999501,-9.97047100
-89.49999503,-9.85113100
-88.99999504,-9.79330700
-88.49999505,-9.79330700
-87.99999507,-9.84867000
-87.49999508,-9.95632300
-86.99999510,-10.01169000
-86.49999511,-10.01169000
-85.99999513,-9.95386200
-85.49999514,-9.83452200
-84.99999515,-9.83452200
-84.49999517,-9.95386200
-83.99999518,-10.01415000
-83.49999520,-10.02522000
-82.99999521,-9.91818300
-82.49999522,-9.70164800
-81.99999524,-9.59461100
-81.49999525,-9.60568300
-80.99999527,-9.66043300
-80.49999528,-9.75762700
-79.99999529,-9.85912800
-79.49999531,-9.94586600
-78.99999532,-10.05536000
-78.49999534,-10.18516000
-77.99999535,-10.07812000
-77.49999537,-9.74286400
-76.99999538,-9.57800100
-76.49999539,-9.58907400
-75.99999541,-9.70718500
-75.49999542,-9.94525100
-74.99999544,-9.93971300
-74.49999545,-9.68011800
-73.99999546,-9.67458200
-73.49999548,-9.91264700
-72.99999549,-10.01968000
-72.49999551,-9.98708100
-71.99999552,-10.03629000
-71.49999554,-10.15563000
-70.99999555,-10.15810000
-70.49999556,-10.04983000
-69.99999558,-9.94279000
-69.49999559,-9.84559500
-68.99999561,-9.79084600
-68.49999562,-9.77977300
-67.99999563,-9.88435100
-67.49999565,-10.08920000
-66.99999566,-10.25160000
-66.49999568,-10.35987000
-65.99999569,-10.31004000
-65.49999571,-10.11565000
-64.99999572,-9.84928600
-64.49999573,-9.53617100
-63.99999575,-9.43466900
-63.49999576,-9.56446800
-62.99999578,-9.67950200
-62.49999579,-9.78777000
-61.99999580,-9.78531000
-61.49999582,-9.66596900
-60.99999583,-9.60568300
-60.49999585,-9.59461100
-59.99999586,-9.70164800
-59.49999587,-9.91818300
-58.99999589,-10.02522000
-58.49999590,-10.01415000
-57.99999592,-9.95632300
-57.49999593,-9.84867000
-56.99999595,-9.79330700
-56.49999596,-9.79330700
-55.99999597,-9.85113100
-55.49999599,-9.97047100
-54.99999600,-9.97600800
-54.49999602,-9.87881400
-53.99999603,-9.71333600
-53.49999604,-9.48634300
-52.99999606,-9.48941900
-52.49999607,-9.72748500
-51.99999609,-9.83698400
-51.49999610,-9.81545200
-50.99999612,-9.80991600
-50.49999613,-9.80991600
-49.99999614,-9.81545200
-49.49999616,-9.83698400
-48.99999617,-9.72994500
-48.49999619,-9.50295300
-47.99999620,-9.44512700
-47.49999621,-9.55339500
-46.99999623,-9.72133400
-46.49999624,-9.94832700
-45.99999626,-9.94279000
-45.49999627,-9.69365100
-44.99999628,-9.63336600
-44.49999630,-9.75209100
-43.99999631,-9.86774200
-43.49999633,-9.98646600
-42.99999634,-9.93171700
-42.49999636,-9.70472400
-41.99999637,-9.59461100
-41.49999638,-9.60568300
-40.99999640,-9.66043300
-40.49999641,-9.75762700
-39.99999643,-9.86220500
-39.49999644,-9.95939900
-38.99999645,-10.01169000
-38.49999647,-10.01169000
-37.99999648,-9.95632300
-37.49999650,-9.84867000
-36.99999651,-9.79330700
-36.49999653,-9.79330700
-35.99999654,-9.84867000
-35.49999655,-9.95632300
-34.99999657,-10.01169000
-34.49999658,-10.01169000
-33.99999660,-9.95939900
-33.49999661,-9.86220500
-32.99999662,-9.75516700
-32.49999664,-9.64689900
-31.99999665,-9.64136300
-31.49999667,-9.72748500
-30.99999668,-9.94463500
-30.49999669,-10.27990000
-29.99999671,-10.33218000
-29.49999672,-10.09412000
-28.99999674,-9.92925600
-28.49999675,-9.84313500
-27.99999677,-9.79884200
-27.49999678,-9.82098900
-26.99999679,-9.76870100
-26.49999681,-9.64936000
-25.99999682,-9.64936000
-25.49999684,-9.76870100
-24.99999685,-9.81791200
-24.49999686,-9.78531000
-23.99999688,-9.88988600
-23.49999689,-10.11688000
-22.99999691,-10.17163000
-22.49999692,-10.05290000
-21.99999694,-9.94279000
-21.49999695,-9.84559500
-20.99999696,-9.79330700
-20.49999698,-9.79330700
-19.99999699,-9.85420700
-19.49999701,-9.98400600
-18.99999702,-9.92864100
-18.49999703,-9.69119100
-17.99999705,-9.63582600
-17.49999706,-9.76562400
-16.99999708,-9.82344900
-16.49999709,-9.81237700
-15.99999710,-9.80745600
-15.49999712,-9.79638200
-14.99999713,-9.85113100
-14.49999715,-9.97047100
-13.99999716,-9.96739700
-13.49999718,-9.83759800
-12.99999719,-9.83452200
-12.49999720,-9.95386200
-11.99999722,-10.01169000
-11.49999723,-10.01169000
-10.99999725,-9.95632300
-10.49999726,-9.84867000
-9.99999727,-9.79884200
-9.49999729,-9.82098900
-8.99999730,-9.76316400
-8.49999732,-9.62229300
-7.99999733,-9.72933000
-7.49999735,-10.07566000
-6.99999736,-10.19070000
-6.49999737,-10.08305000
-5.99999739,-9.86035800
-5.49999740,-9.52509800
-4.99999742,-9.47280900
-4.49999743,-9.71087600
-3.99999744,-9.87881400
-3.49999746,-9.97600800
-2.99999747,-9.97293300
-2.49999749,-9.86466500
-1.99999750,-9.75762700
-1.49999752,-9.66043300
-0.99999753,-9.61122000
-0.49999754,-9.62229300
0.00000244,-9.62229300
0.50000243,-9.61122000
1.00000241,-9.66596900
1.50000240,-9.78531000
2.00000239,-9.77977300
2.50000237,-9.63890200
3.00000236,-9.68811500
3.50000234,-9.91510800
4.00000233,-10.02522000
4.50000232,-10.01415000
5.00000230,-9.95939900
5.50000229,-9.86220500
6.00000227,-9.75516700
6.50000226,-9.64689900
7.00000224,-9.64936000
7.50000223,-9.76870100
8.00000222,-9.82098900
8.50000220,-9.79884200
9.00000219,-9.85420700
9.50000217,-9.98400600
10.00000216,-9.92864100
10.50000215,-9.69119100
11.00000213,-9.63336600
11.50000212,-9.75209100
12.00000210,-9.86466500
12.50000209,-9.97293300
13.00000207,-9.96739700
13.50000206,-9.83759800
14.00000205,-9.83759800
14.50000203,-9.96739700
15.00000202,-9.96739700
15.50000200,-9.83759800
16.00000199,-9.83206100
16.50000198,-9.94033000
17.00000196,-10.05290000
17.50000195,-10.17163000
18.00000193,-10.11688000
18.50000192,-9.88988600
19.00000191,-9.77977300
19.50000189,-9.79084600
20.00000188,-9.84559500
20.50000186,-9.94279000
21.00000185,-10.04983000
21.50000183,-10.15810000
22.00000182,-10.16117000
22.50000181,-10.06398000
23.00000179,-9.90157400
23.50000178,-9.68565500
24.00000176,-9.63336600
24.50000175,-9.75209100
25.00000174,-9.86466500
25.50000172,-9.97293300
26.00000171,-9.96739700
26.50000169,-9.83759800
27.00000168,-9.83452200
27.50000166,-9.95386200
28.00000165,-10.00861000
28.50000164,-9.99753900
29.00000162,-9.99507800
29.50000161,-9.99507800
30.00000159,-10.00062000
30.50000158,-10.02215000
31.00000157,-9.91818300
31.50000155,-9.70164800
32.00000154,-9.59215000
32.50000152,-9.59215000
33.00000151,-9.70472400
33.50000150,-9.93171700
34.00000148,-9.98400600
34.50000147,-9.85420700
35.00000145,-9.79638200
35.50000144,-9.80745600
36.00000142,-9.80745600
36.50000141,-9.79638200
37.00000140,-9.85420700
37.50000138,-9.98400600
38.00000137,-9.92864100
38.50000135,-9.69119100
39.00000134,-9.63336600
39.50000133,-9.75209100
40.00000131,-9.86220500
40.50000130,-9.95939900
41.00000128,-10.01415000
41.50000127,-10.02522000
42.00000125,-9.91264700
42.50000124,-9.67458200
43.00000123,-9.67150600
43.50000121,-9.89849900
44.00000120,-10.06398000
44.50000118,-10.16117000
45.00000117,-10.15563000
45.50000116,-10.03629000
46.00000114,-9.98154500
46.50000113,-9.99261800
47.00000111,-9.99507800
47.50000110,-9.99507800
48.00000108,-9.99507800
48.50000107,-9.99507800
49.00000106,-10.00062000
49.50000104,-10.02215000
50.00000103,-9.91510800
50.50000101,-9.68811500
51.00000100,-9.63336600
51.50000099,-9.75209100
52.00000097,-9.86466500
52.50000096,-9.97293300
53.00000094,-9.97047100
53.50000093,-9.85113100
54.00000092,-9.79638200
54.50000090,-9.80745600
55.00000089,-9.80437900
55.50000087,-9.78284900
56.00000086,-9.88435100
56.50000084,-10.08920000
57.00000083,-10.25467000
57.50000082,-10.37340000
58.00000080,-10.26083000
58.50000079,-9.91449300
59.00000077,-9.80745600
59.50000076,-9.94832700
60.00000075,-10.01415000
60.50000073,-10.02522000
61.00000072,-9.91818300
61.50000070,-9.70164800
62.00000069,-9.59461100
62.50000067,-9.60568300
63.00000066,-9.66350800
63.50000065,-9.77116100
64.00000063,-9.82344900
64.50000062,-9.81237700
65.00000060,-9.81791200
65.50000059,-9.85113100
66.00000058,-9.69180600
66.50000056,-9.35654400
67.00000055,-9.24397100
67.50000053,-9.35162400
68.00000052,-9.56877400
68.50000051,-9.88188800
69.00000049,-10.03629000
69.50000048,-10.00308000
70.00000046,-9.99753900
70.50000045,-10.00861000
71.00000043,-9.95632300
71.50000042,-9.84867000
72.00000041,-9.79638200
72.50000039,-9.80745600
73.00000038,-9.81237700
73.50000036,-9.82344900
74.00000035,-9.76562400
74.50000034,-9.63582600
75.00000032,-9.68811500
75.50000031,-9.91510800
76.00000029,-10.02768000
76.50000028,-10.02768000
77.00000026,-9.91818300
77.50000025,-9.70164800
78.00000024,-9.60014700
78.50000022,-9.63275100
79.00000021,-9.58353800
79.50000019,-9.46419700
80.00000018,-9.45866100
80.50000017,-9.55585600
81.00000015,-9.72133400
81.50000014,-9.94832700
82.00000012,-9.93971300
82.50000011,-9.68011800
83.00000010,-9.67458200
83.50000008,-9.91264700
84.00000007,-10.02768000
84.50000005,-10.02768000
85.00000004,-9.91264700
85.50000002,-9.67458200
86.00000001,-9.67704200
86.50000000,-9.92618100
86.99999998,-9.98092900
87.49999997,-9.84005800
87.99999995,-9.83759800
88.49999994,-9.96739700
88.99999993,-9.96739700
89.49999991,-9.83759800
89.99999990,-9.83452200
90.49999988,-9.95386200
90.99999987,-10.00861000
91.49999985,-9.99753900
91.99999984,-9.99507800
92.49999983,-9.99507800
92.99999981,-9.99753900
93.49999980,-10.00861000
93.99999978,-9.96186000
94.49999977,-9.87573700
94.99999976,-9.71333600
95.49999974,-9.48634300
95.99999973,-9.48634300
96.49999971,-9.71333600
96.99999970,-9.88127400
97.49999969,-9.98954200
97.99999967,-9.92618100
98.49999966,-9.67704200
98.99999964,-9.67150600
99.49999963,-9.89849900
99.99999961,-10.06090000
100.49999960,-10.14702000
100.99999959,-10.19685000
101.49999957,-10.19685000
101.99999956,-10.14456000
102.49999954,-10.04737000
102.99999953,-9.94033000
103.49999952,-9.83206100
103.99999950,-9.83452200
104.49999949,-9.95386200
104.99999947,-10.01415000
105.49999946,-10.02522000
105.99999944,-9.91510800
106.49999943,-9.68811500
106.99999942,-9.63336600
107.49999940,-9.75209100
107.99999939,-9.86774200
108.49999937,-9.98646600
108.99999936,-9.93171700
109.49999935,-9.70472400
109.99999933,-9.59768700
110.49999932,-9.61921700
110.99999930,-9.61921700
111.49999929,-9.59768700
111.99999927,-9.69918700
112.49999926,-9.90403500
112.99999925,-10.06951000
113.49999923,-10.18824000
113.99999922,-10.07566000
114.49999920,-9.72933000
114.99999919,-9.61983200
115.49999918,-9.74963100
115.99999916,-9.86774200
116.49999915,-9.98646600
116.99999913,-9.93171700
117.49999912,-9.70472400
117.99999911,-9.59461100
118.49999909,-9.60568300
118.99999908,-9.66043300
119.49999906,-9.75762700
119.99999905,-9.86220500
120.49999903,-9.95939900
120.99999902,-10.00861000
121.49999901,-9.99753900
121.99999899,-9.99753900
122.49999898,-10.00861000
122.99999896,-9.95386200
123.49999895,-9.83452200
123.99999894,-9.83452200
124.49999892,-9.95386200
124.99999891,-10.01415000
125.49999889,-10.02522000
125.99999888,-9.91818300
126.49999886,-9.70164800
126.99999885,-9.59461100
127.49999884,-9.60568300
127.99999882,-9.65797200
128.49999881,-9.74409400
128.99999879,-9.90342000
129.49999878,-10.11934000
129.99999877,-10.16917000
130.49999875,-10.03937000
130.99999874,-9.98154500
131.49999872,-9.99261800
131.99999871,-9.99753900
132.49999870,-10.00861000
132.99999868,-9.95939900
133.49999867,-9.86220500
133.99999865,-9.75762700
134.49999864,-9.66043300
134.99999862,-9.60814500
135.49999861,-9.60814500
135.99999860,-9.66043300
136.49999858,-9.75762700
136.99999857,-9.86774200
137.49999855,-9.98646600
137.99999854,-9.92864100
138.49999853,-9.69119100
138.99999851,-9.63029000
139.49999850,-9.73855800
139.99999848,-9.90342000
140.49999847,-10.11934000
140.99999845,-10.17163000
141.49999844,-10.05290000
141.99999843,-9.94586600
142.49999841,-9.85912800
142.99999840,-9.75762700
143.49999838,-9.66043300
143.99999837,-9.60260800
144.49999836,-9.58107800
144.99999834,-9.74286400
145.49999833,-10.07812000
145.99999831,-10.18824000
146.49999830,-10.06951000
146.99999829,-9.90403500
147.49999827,-9.69918700
147.99999826,-9.59768700
148.49999824,-9.61921700
148.99999823,-9.62229300
149.49999821,-9.61122000
149.99999820,-9.66043300
150.49999819,-9.75762700
150.99999817,-9.86220500
151.49999816,-9.95939900
151.99999814,-10.00861000
152.49999813,-9.99753900
152.99999812,-10.00062000
153.49999810,-10.02215000
153.99999809,-9.91264700
154.49999807,-9.67458200
154.99999806,-9.67150600
155.49999804,-9.89849900
155.99999803,-10.06398000
156.49999802,-10.16117000
156.99999800,-10.16117000
157.49999799,-10.06398000
157.99999797,-9.90403500
158.49999796,-9.69918700
158.99999795,-9.59768700
159.49999793,-9.61921700
159.99999792,-9.61921700
160.49999790,-9.59768700
160.99999789,-9.70164800
161.49999787,-9.91818300
161.99999786,-10.02522000
162.49999785,-10.01415000
162.99999783,-9.95386200
163.49999782,-9.83452200
163.99999780,-9.83759800
164.49999779,-9.96739700
164.99999778,-9.97293300
165.49999776,-9.86466500
165.99999775,-9.75516700
166.49999773,-9.64689900
166.99999772,-9.64689900
167.49999771,-9.75516700
167.99999769,-9.86466500
168.49999768,-9.97293300
168.99999766,-9.97293300
169.49999765,-9.86466500
169.99999763,-9.75516700
170.49999762,-9.64689900
170.99999761,-9.64382400
171.49999759,-9.74101800
171.99999758,-9.90342000
172.49999756,-10.11934000
172.99999755,-10.17163000
173.49999754,-10.05290000
173.99999752,-9.94033000
174.49999751,-9.83206100
174.99999749,-9.83759800
175.49999748,-9.96739700
175.99999746,-9.96493600
176.49999745,-9.82406500
176.99999744,-9.87881400
177.49999742,-10.12795000
177.99999741,-10.12795000
178.49999739,-9.87881400
178.99999738,-9.82098900
179.49999737,-9.95078800
179.99999735,-10.00861000
180.49999734,-9.99753900
180.99999732,-10.00062000
181.49999731,-10.02215000
181.99999730,-9.91510800
182.49999728,-9.68811500
182.99999727,-9.63336600
183.49999725,-9.75209100
183.99999724,-9.86220500
184.49999722,-9.95939900
184.99999721,-10.01415000
185.49999720,-10.02522000
185.99999718,-9.91510800
186.49999717,-9.68811500
186.99999715,-9.63336600
187.49999714,-9.75209100
187.99999713,-9.86220500
188.49999711,-9.95939900
188.99999710,-10.01169000
189.49999708,-10.01169000
189.99999707,-9.95939900
190.49999705,-9.86220500
190.99999704,-9.75516700
191.49999703,-9.64689900
191.99999701,-9.64689900
192.49999700,-9.75516700
192.99999698,-9.86774200
193.49999697,-9.98646600
193.99999696,-9.92864100
194.49999694,-9.69119100
194.99999693,-9.63336600
195.49999691,-9.75209100
195.99999690,-9.86466500
196.49999689,-9.97293300
196.99999687,-9.96739700
197.49999686,-9.83759800
197.99999684,-9.83759800
198.49999683,-9.96739700
198.99999681,-9.96739700
199.49999680,-9.83759800
199.99999679,-9.83759800
200.49999677,-9.96739700
200.99999676,-9.97293300
201.49999674,-9.86466500
201.99999673,-9.75516700
202.49999672,-9.64689900
202.99999670,-9.64382400
203.49999669,-9.74101800
203.99999667,-9.90342000
204.49999666,-10.11934000
204.99999664,-10.16917000
205.49999663,-10.03937000
205.99999662,-9.98154500
206.49999660,-9.99261800
206.99999659,-9.99261800
207.49999657,-9.98154500
207.99999656,-10.03076000
208.49999655,-10.12795000
208.99999653,-10.24053000
209.49999652,-10.37033000
209.99999650,-10.26329000
210.49999649,-9.92802600
210.99999648,-9.76624000
211.49999646,-9.78777000
211.99999645,-9.84867000
212.49999643,-9.95632300
212.99999642,-10.00861000
213.49999640,-9.99753900
213.99999639,-9.99507800
214.49999638,-9.99507800
214.99999636,-9.99507800
215.49999635,-9.99507800
215.99999633,-9.99261800
216.49999632,-9.98154500
216.99999631,-10.04183000
217.49999629,-10.18270000
217.99999628,-10.07812000
218.49999626,-9.74286400
218.99999625,-9.57800100
219.49999623,-9.58907400
219.99999622,-9.70472400
220.49999621,-9.93171700
220.99999619,-9.98646600
221.49999618,-9.86774200
221.99999616,-9.75209100
222.49999615,-9.63336600
222.99999614,-9.68811500
223.49999612,-9.91510800
223.99999611,-10.01968000
224.49999609,-9.98708100
224.99999608,-10.04183000
225.49999606,-10.18270000
225.99999605,-10.07566000
226.49999604,-9.72933000
226.99999602,-9.61983200
227.49999601,-9.74963100
227.99999599,-9.86220500
228.49999598,-9.95939900
228.99999597,-10.01169000
229.49999595,-10.01169000
229.99999594,-9.95386200
230.49999592,-9.83452200
230.99999591,-9.83452200
231.49999590,-9.95386200
231.99999588,-10.00861000
232.49999587,-9.99753900
232.99999585,-9.99753900
233.49999584,-10.00861000
233.99999582,-9.95939900
234.49999581,-9.86220500
234.99999580,-9.75209100
235.49999578,-9.63336600
235.99999577,-9.68811500
236.49999575,-9.91510800
236.99999574,-10.02522000
237.49999573,-10.01415000
237.99999571,-9.95632300
238.49999570,-9.84867000
238.99999568,-9.79884200
239.49999567,-9.82098900
239.99999565,-9.76562400
240.49999564,-9.63582600
240.99999563,-9.69119100
241.49999561,-9.92864100
241.99999560,-9.98400600
242.49999558,-9.85420700
242.99999557,-9.79330700
243.49999556,-9.79330700
243.99999554,-9.85113100
244.49999553,-9.97047100
244.99999551,-9.97293300
245.49999550,-9.86466500
245.99999549,-9.75516700
246.49999547,-9.64689900
246.99999546,-9.65243500
247.49999544,-9.78223300
247.99999543,-9.77977300
248.49999541,-9.63890200
248.99999540,-9.69119100
249.49999539,-9.92864100
249.99999537,-9.98400600
250.49999536,-9.85420700
250.99999534,-9.79330700
251.49999533,-9.79330700
251.99999532,-9.85113100
252.49999530,-9.97047100
252.99999529,-9.97047100
253.49999527,-9.85113100
253.99999526,-9.79884200
254.49999524,-9.82098900
254.99999523,-9.76562400
255.49999522,-9.63582600
255.99999520,-9.68811500
256.49999519,-9.91510800
256.99999517,-10.02768000
257.49999516,-10.02768000
257.99999515,-9.91510800
258.49999513,-9.68811500
258.99999512,-9.63336600
259.49999510,-9.75209100
259.99999509,-9.86466500
260.49999508,-9.97293300
260.99999506,-9.97293300
261.49999505,-9.86466500
261.99999503,-9.75516700
262.49999502,-9.64689900
262.99999500,-9.64382400
263.49999499,-9.74101800
263.99999498,-9.90342000
264.49999496,-10.11934000
264.99999495,-10.17163000
265.49999493,-10.05290000
265.99999492,-9.94279000
266.49999491,-9.84559500
266.99999489,-9.79638200
267.49999488,-9.80745600
267.99999486,-9.81237700
268.49999485,-9.82344900
268.99999483,-9.76870100
269.49999482,-9.64936000
269.99999481,-9.64936000
270.49999479,-9.76870100
270.99999478,-9.82652600
271.49999476,-9.82652600
271.99999475,-9.76562400
272.49999474,-9.63582600
272.99999472,-9.69119100
273.49999471,-9.92864100
273.99999469,-9.98400600
274.49999468,-9.85420700
274.99999466,-9.79638200
275.49999465,-9.80745600
275.99999464,-9.80745600
276.49999462,-9.79638200
276.99999461,-9.85113100
277.49999459,-9.97047100
277.99999458,-9.97047100
278.49999457,-9.85113100
278.99999455,-9.79638200
279.49999454,-9.80745600
279.99999452,-9.80991600
280.49999451,-9.80991600
280.99999450,-9.81545200
281.49999448,-9.83698400
281.99999447,-9.72748500
282.49999445,-9.48941900
282.99999444,-9.48634300
283.49999442,-9.71333600
283.99999441,-9.87881400
284.49999440,-9.97600800
284.99999438,-9.97047100
285.49999437,-9.85113100
285.99999435,-9.79638200
286.49999434,-9.80745600
286.99999433,-9.80991600
287.49999431,-9.80991600
287.99999430,-9.80437900
288.49999428,-9.78284900
288.99999427,-9.89234600
289.49999425,-10.13041000
289.99999424,-10.13349000
290.49999423,-9.90649500
290.99999421,-9.73855800
291.49999420,-9.63029000
291.99999418,-9.68811500
292.49999417,-9.91510800
292.99999416,-10.02522000
293.49999414,-10.01415000
293.99999413,-9.95632300
294.49999411,-9.84867000
294.99999410,-9.79638200
295.49999409,-9.80745600
295.99999407,-9.80745600
296.49999406,-9.79638200
296.99999404,-9.85420700
297.49999403,-9.98400600
297.99999401,-9.92864100
298.49999400,-9.69119100
298.99999399,-9.63029000
299.49999397,-9.73855800
299.99999396,-9.90342000
300.49999394,-10.11934000
300.99999393,-10.17163000
301.49999392,-10.05290000
301.99999390,-9.94279000
302.49999389,-9.84559500
302.99999387,-9.79638200
303.49999386,-9.80745600
303.99999384,-9.80745600
304.49999383,-9.79638200
304.99999382,-9.85113100
305.49999380,-9.97047100
305.99999379,-9.97047100
306.49999377,-9.85113100
306.99999376,-9.79884200
307.49999375,-9.82098900
307.99999373,-9.77116100
308.49999372,-9.66350800
308.99999370,-9.60568300
309.49999369,-9.59461100
309.99999368,-9.70164800
310.49999366,-9.91818300
310.99999365,-10.02215000
311.49999363,-10.00062000
311.99999362,-9.99507800
312.49999360,-9.99507800
312.99999359,-9.99753900
313.49999358,-10.00861000
313.99999356,-9.95632300
314.49999355,-9.84867000
314.99999353,-9.79330700
315.49999352,-9.79330700
315.99999351,-9.85420700
316.49999349,-9.98400600
316.99999348,-9.93171700
317.49999346,-9.70472400
317.99999345,-9.59768700
318.49999343,-9.61921700
318.99999342,-9.62229300
319.49999341,-9.61122000
319.99999339,-9.66043300
320.49999338,-9.75762700
320.99999336,-9.86774200
321.49999335,-9.98646600
321.99999334,-9.92864100
322.49999332,-9.69119100
322.99999331,-9.63336600
323.49999329,-9.75209100
323.99999328,-9.86774200
324.49999327,-9.98646600
324.99999325,-9.93417800
325.49999324,-9.71825700
325.99999322,-9.55032000
326.49999321,-9.43159500
326.99999319,-9.54170700
327.49999318,-9.87696700
327.99999317,-10.03322000
328.49999315,-9.98954200
328.99999314,-10.03629000
329.49999312,-10.15563000
329.99999311,-10.15810000
330.49999310,-10.04983000
330.99999308,-9.94586600
331.49999307,-9.85912800
331.99999305,-9.75762700
332.49999304,-9.66043300
332.99999302,-9.60568300
333.49999301,-9.59461100
333.99999300,-9.70472400
334.49999298,-9.93171700
334.99999297,-9.98092900
335.49999295,-9.84005800
335.99999294,-9.83206100
336.49999293,-9.94033000
336.99999291,-10.05536000
337.49999290,-10.18516000
337.99999288,-10.07566000
338.49999287,-9.72933000
338.99999285,-9.61983200
339.49999284,-9.74963100
339.99999283,-9.86466500
340.49999281,-9.97293300
340.99999280,-9.97293300
341.49999278,-9.86466500
341.99999277,-9.75209100
342.49999276,-9.63336600
342.99999274,-9.68565500
343.49999273,-9.90157400
343.99999271,-10.06398000
344.49999270,-10.16117000
344.99999269,-10.15810000
345.49999267,-10.04983000
345.99999266,-9.94279000
346.49999264,-9.84559500
346.99999263,-9.79084600
347.49999261,-9.77977300
347.99999260,-9.88988600
348.49999259,-10.11688000
348.99999257,-10.17163000
349.49999256,-10.05290000
349.99999254,-9.94832700
350.49999253,-9.87327700
350.99999252,-9.71641300
351.49999250,-9.50049200
351.99999249,-9.44266700
352.49999247,-9.53986200
352.99999246,-9.75947300
353.49999244,-10.09473000
353.99999243,-10.14948000
354.49999242,-9.92249000
354.99999240,-9.69980200
355.49999239,-9.48388300
355.99999237,-9.49187900
356.49999236,-9.74101800
356.99999235,-9.79884200
357.49999233,-9.66904400
357.99999232,-9.60568300
358.49999230,-9.59461100
358.99999229,-9.70164800
359.49999228,-9.91818300
359.99999226,-10.02215000
360.49999225,-10.00062000
360.99999223,-9.99753900
361.49999222,-10.00861000
361.99999220,-9.95632300
362.49999219,-9.84867000
362.99999218,-9.79084600
363.49999216,-9.77977300
363.99999215,-9.89542300
364.49999213,-10.14395000
364.99999212,-10.09166000
365.49999211,-9.74594000
365.99999209,-9.58107800
366.49999208,-9.60260800
366.99999206,-9.66350800
367.49999205,-9.77116100
367.99999203,-9.82098900
368.49999202,-9.79884200
368.99999201,-9.85420700
369.49999199,-9.98400600
369.99999198,-9.93171700
370.49999196,-9.70472400
370.99999195,-9.59215000
371.49999194,-9.59215000
371.99999192,-9.70472400
372.49999191,-9.93171700
372.99999189,-9.98646600
373.49999188,-9.86774200
373.99999187,-9.75516700
374.49999185,-9.64689900
374.99999184,-9.64689900
375.49999182,-9.75516700
375.99999181,-9.86220500
376.49999179,-9.95939900
376.99999178,-10.01415000
377.49999177,-10.02522000
377.99999175,-9.91818300
378.49999174,-9.70164800
378.99999172,-9.58907400
379.49999171,-9.57800100
379.99999170,-9.74286400
380.49999168,-10.07812000
380.99999167,-10.18270000
381.49999165,-10.04183000
381.99999164,-9.98400600
382.49999162,-10.00615000
382.99999161,-9.95939900
383.49999160,-9.86220500
383.99999158,-9.75209100
384.49999157,-9.63336600
384.99999155,-9.69365100
385.49999154,-9.94279000
385.99999153,-9.94279000
386.49999151,-9.69365100
386.99999150,-9.63336600
387.49999148,-9.75209100
387.99999147,-9.86220500
388.49999145,-9.95939900
388.99999144,-10.01169000
389.49999143,-10.01169000
389.99999141,-9.95632300
390.49999140,-9.84867000
390.99999138,-9.79638200
391.49999137,-9.80745600
391.99999136,-9.80745600
392.49999134,-9.79638200
392.99999133,-9.85113100
393.49999131,-9.97047100
393.99999130,-9.97047100
394.49999129,-9.85113100
394.99999127,-9.79330700
395.49999126,-9.79330700
395.99999124,-9.84867000
396.49999123,-9.95632300
396.99999121,-10.01169000
397.49999120,-10.01169000
397.99999119,-9.95939900
398.49999117,-9.86220500
398.99999116,-9.75516700
399.49999114,-9.64689900
399.99999113,-9.64689900
400.49999112,-9.75516700
400.99999110,-9.86774200
401.49999109,-9.98646600
401.99999107,-9.92864100
402.49999106,-9.69119100
402.99999104,-9.63336600
403.49999103,-9.75209100
403.99999102,-9.86466500
404.49999100,-9.97293300
404.99999099,-9.97293300
405.49999097,-9.86466500
405.99999096,-9.75516700
406.49999095,-9.64689900
406.99999093,-9.64689900
407.49999092,-9.75516700
407.99999090,-9.86466500
408.49999089,-9.97293300
408.99999088,-9.97600800
409.49999086,-9.87881400
409.99999085,-9.71087600
410.49999083,-9.47280900
410.99999082,-9.52509800
411.49999080,-9.86035800
411.99999079,-10.07751000
412.49999078,-10.16363000
412.99999076,-10.15563000
413.49999075,-10.03629000
413.99999073,-9.98400600
414.49999072,-10.00615000
414.99999071,-9.95078800
415.49999069,-9.82098900
415.99999068,-9.87635300
416.49999066,-10.11380000
416.99999065,-10.17717000
417.49999063,-10.07997000
417.99999062,-9.86281900
418.49999061,-9.53863100
418.99999059,-9.43713000
419.49999058,-9.57800100
419.99999056,-9.63582600
420.49999055,-9.61368100
420.99999054,-9.66350800
421.49999052,-9.77116100
421.99999051,-9.82344900
422.49999049,-9.81237700
422.99999048,-9.80745600
423.49999047,-9.79638200
423.99999045,-9.84867000
424.49999044,-9.95632300
424.99999042,-10.01415000
425.49999041,-10.02522000
425.99999039,-9.91264700
426.49999038,-9.67458200
426.99999037,-9.67150600
427.49999035,-9.89849900
427.99999034,-10.06398000
428.49999032,-10.16117000
428.99999031,-10.15563000
429.49999030,-10.03629000
429.99999028,-9.98400600
430.49999027,-10.00615000
430.99999025,-9.95078800
431.49999024,-9.82098900
431.99999022,-9.87635300
432.49999021,-10.11380000
432.99999020,-10.17470000
433.49999018,-10.06644000
433.99999017,-9.90711100
434.49999015,-9.71272100
434.99999014,-9.55339500
435.49999013,-9.44512700
435.99999011,-9.50602800
436.49999010,-9.74347900
436.99999008,-9.79576800
437.49999007,-9.65489600
437.99999006,-9.64689900
438.49999004,-9.75516700
438.99999003,-9.86220500
439.49999001,-9.95939900
439.99999000,-10.00861000
440.49998998,-9.99753900
440.99998997,-9.99507800
441.49998996,-9.99507800
441.99998994,-9.99753900
442.49998993,-10.00861000
442.99998991,-9.95386200
443.49998990,-9.83452200
443.99998989,-9.84005800
444.49998987,-9.98092900
444.99998986,-9.93171700
445.49998984,-9.70472400
445.99998983,-9.59768700
446.49998981,-9.61921700
446.99998980,-9.62229300
447.49998979,-9.61122000
447.99998977,-9.66350800
448.49998976,-9.77116100
448.99998974,-9.82652600
449.49998973,-9.82652600
449.99998972,-9.76562400
450.49998970,-9.63582600
450.99998969,-9.68811500
451.49998967,-9.91510800
451.99998966,-10.02522000
452.49998964,-10.01415000
452.99998963,-9.95939900
453.49998962,-9.86220500
453.99998960,-9.75516700
454.49998959,-9.64689900
454.99998957,-9.64382400
455.49998956,-9.74101800
455.99998955,-9.90096000
456.49998953,-10.10581000
456.99998952,-10.21284000
457.49998950,-10.21284000
457.99998949,-10.10335000
458.49998948,-9.88681100
458.99998946,-9.77977300
459.49998945,-9.79084600
459.99998943,-9.85420700
460.49998942,-9.98400600
460.99998940,-9.93171700
461.49998939,-9.70472400
461.99998938,-9.59768700
462.49998936,-9.61921700
462.99998935,-9.62229300
463.49998933,-9.61122000
463.99998932,-9.66350800
464.49998931,-9.77116100
464.99998929,-9.82652600
465.49998928,-9.82652600
465.99998926,-9.76870100
466.49998925,-9.64936000
466.99998923,-9.64689900
467.49998922,-9.75516700
467.99998921,-9.86220500
468.49998919,-9.95939900
468.99998918,-10.01415000
469.49998916,-10.02522000
469.99998915,-9.91510800
470.49998914,-9.68811500
470.99998912,-9.63890200
471.49998911,-9.77977300
471.99998909,-9.77977300
472.49998908,-9.63890200
472.99998907,-9.68811500
473.49998905,-9.91510800
473.99998904,-10.01968000
474.49998902,-9.98708100
474.99998901,-10.03076000
475.49998899,-10.12795000
475.99998898,-10.23807000
476.49998897,-10.35679000
476.99998895,-10.30758000
477.49998894,-10.10212000
477.99998892,-9.89357700
478.49998891,-9.71026000
478.99998890,-9.55585600
479.49998888,-9.45866100
479.99998887,-9.45866100
480.49998885,-9.55585600
480.99998884,-9.72133400
481.49998882,-9.94832700
481.99998881,-9.94279000
482.49998880,-9.69365100
482.99998878,-9.63582600
483.49998877,-9.76562400
483.99998875,-9.82652600
484.49998874,-9.82652600
484.99998873,-9.77116100
485.49998871,-9.66350800
485.99998870,-9.60814500
486.49998868,-9.60814500
486.99998867,-9.66043300
487.49998866,-9.75762700
487.99998864,-9.86220500
488.49998863,-9.95939900
488.99998861,-10.01415000
489.49998860,-10.02522000
489.99998858,-9.91264700
490.49998857,-9.67458200
490.99998856,-9.67150600
491.49998854,-9.89849900
491.99998853,-10.06398000
492.49998851,-10.16117000
492.99998850,-10.15563000
493.49998849,-10.03629000
493.99998847,-9.98708100
494.49998846,-10.01968000
494.99998844,-9.91510800
495.49998843,-9.68811500
495.99998841,-9.63582600
496.49998840,-9.76562400
496.99998839,-9.82652600
497.49998837,-9.82652600
497.99998836,-9.77116100
498.49998834,-9.66350800
498.99998833,-9.60568300
499.49998832,-9.59461100
499.99998830,-9.70164800
500.49998829,-9.91818300
500.99998827,-10.02768000
501.49998826,-10.02768000
501.99998824,-9.91264700
502.49998823,-9.67458200
502.99998822,-9.67458200
503.49998820,-9.91264700
503.99998819,-10.02215000
504.49998817,-10.00062000
504.99998816,-9.99507800
505.49998815,-9.99507800
505.99998813,-9.99507800
506.49998812,-9.99507800
506.99998810,-9.99261800
507.49998809,-9.98154500
507.99998808,-10.03076000
508.49998806,-10.12795000
508.99998805,-10.23499000
509.49998803,-10.34326000
509.99998802,-10.34326000
510.49998800,-10.23499000
510.99998799,-10.12795000
511.49998798,-10.03076000
511.99998796,-9.97846900
512.49998795,-9.97846900
512.99998793,-10.03937000
513.49998792,-10.16917000
513.99998791,-10.11380000
514.49998789,-9.87635300
514.99998788,-9.81852800
515.49998786,-9.93725300
515.99998785,-10.05290000
516.49998783,-10.17163000
516.99998782,-10.11688000
517.49998781,-9.88988600
517.99998779,-9.78284900
518.49998778,-9.80437900
518.99998776,-9.80991600
519.49998775,-9.80991600
519.99998774,-9.80991600
520.49998772,-9.80991600
520.99998771,-9.81237700
521.49998769,-9.82344900
521.99998768,-9.76870100
522.49998767,-9.64936000
522.99998765,-9.64689900
523.49998764,-9.75516700
523.99998762,-9.86220500
524.49998761,-9.95939900
524.99998759,-10.00861000
525.49998758,-9.99753900
525.99998757,-10.00062000
526.49998755,-10.02215000
526.99998754,-9.91818300
527.49998752,-9.70164800
527.99998751,-9.59461100
528.49998750,-9.60568300
528.99998748,-9.66596900
529.49998747,-9.78531000
529.99998745,-9.78223300
530.49998744,-9.65243500
530.99998742,-9.65243500
531.49998741,-9.78223300
531.99998740,-9.78223300
532.49998738,-9.65243500
532.99998737,-9.64689900
533.49998735,-9.75516700
533.99998734,-9.86220500
534.49998733,-9.95939900
534.99998731,-10.00615000
535.49998730,-9.98400600
535.99998728,-10.03629000
536.49998727,-10.15563000
536.99998726,-10.15563000
537.49998724,-10.03629000
537.99998723,-9.97600800
538.49998721,-9.96493600
538.99998720,-10.07505000
539.49998718,-10.30204000
539.99998717,-10.35433000
540.49998716,-10.22453000
540.99998714,-10.16917000
541.49998713,-10.19131000
541.99998711,-10.14456000
542.49998710,-10.04737000
542.99998709,-9.94033000
543.49998707,-9.83206100
543.99998706,-9.83452200
544.49998704,-9.95386200
544.99998703,-10.01415000
545.49998701,-10.02522000
545.99998700,-9.92064400
546.49998699,-9.71579600
546.99998697,-9.55585600
547.49998696,-9.45866100
547.99998694,-9.46727400
548.49998693,-9.59707200
548.99998692,-9.59461100
549.49998690,-9.45373900
549.99998689,-9.50602800
550.49998687,-9.74347900
550.99998686,-9.79576800
551.49998685,-9.65489600
551.99998683,-9.64936000
552.49998682,-9.76870100
552.99998680,-9.82344900
553.49998679,-9.81237700
553.99998677,-9.80991600
554.49998676,-9.80991600
554.99998675,-9.80745600
555.49998673,-9.79638200
555.99998672,-9.85420700
556.49998670,-9.98400600
556.99998669,-9.92310400
557.49998668,-9.66350800
557.99998666,-9.71887300
558.49998665,-10.08612000
558.99998663,-10.13841000
559.49998662,-9.86774200
559.99998660,-9.85113100
560.49998659,-10.05659000
560.99998658,-10.33403000
561.49998656,-10.68036000
561.99998655,-10.62500000
562.49998653,-10.17101000
562.99998652,-9.88558100
563.49998651,-9.75578200
563.99998649,-10.02768000
564.49998648,-10.68713000
564.99998646,-11.03039000
565.49998645,-11.07406000
565.99998643,-10.57394000
566.49998642,-9.64628400
566.99998641,-8.41043300
567.49998639,-7.07185000
567.99998638,-6.06975800
568.49998636,-5.62869100
568.99998635,-5.11257400
569.49998634,-4.71395100
569.99998632,-4.11786400
570.49998631,-3.47071800
570.99998629,-2.85802100
571.49998628,-2.39419300
571.99998627,-2.16596900
572.49998625,-2.27485200
572.99998624,-2.04724400
573.49998622,-1.58341500
573.99998621,-0.97440940
574.49998619,-0.33772140
574.99998618,0.33526080
575.49998617,0.93934550
575.99998615,1.08513800
576.49998614,0.72773130
576.99998612,0.40969490
577.49998611,0.16178640
577.99998610,-0.18147150
578.49998608,-0.52595960
578.99998607,-1.00147600
579.49998605,-1.55265700
579.99998604,-1.55511800
580.49998602,-1.01501000
580.99998601,-0.47674700
581.49998600,0.01968504
581.99998598,0.24483270
582.49998597,0.20238680
582.99998595,-0.42937990
583.49998594,-1.57357300
583.99998593,-2.32037400
584.49998591,-2.60150100
584.99998590,-2.36220500
585.49998588,-1.57357300
585.99998587,-1.18048700
586.49998586,-1.18048700
586.99998584,-1.56250000
587.49998583,-2.30745600
587.99998581,-2.71961100
588.49998580,-2.72945400
588.99998578,-2.87278500
589.49998577,-3.09977800
589.99998576,-3.10777500
590.49998574,-2.91338600
590.99998573,-2.61380400
591.49998571,-2.27977300
591.99998570,-1.69168300
592.49998569,-0.90305110
592.99998567,-0.87536910
593.49998566,-1.55511800
593.99998564,-2.65440400
594.49998563,-4.02497500
594.99998561,-5.05782500
595.49998560,-5.58624500
595.99998559,-5.72896100
596.49998557,-5.43737600
596.99998556,-4.82283400
597.49998554,-3.99175700
597.99998553,-3.00012300
598.49998552,-1.98572800
598.99998550,-1.60064000
599.49998549,-1.85900600
599.99998547,-2.84264300
600.49998546,-4.39714600
600.99998545,-5.91289400
601.49998543,-7.18626900
601.99998542,-7.65071300
602.49998540,-7.22933100
602.99998539,-6.25984200
603.49998537,-4.81299200
603.99998536,-3.96961100
604.49998535,-3.82935500
604.99998533,-4.11232800
605.49998532,-4.82529500
605.99998530,-5.50135300
606.49998529,-6.04023100
606.99998528,-6.50159900
607.49998526,-6.80425700
607.99998525,-6.74089500
608.49998523,-6.29798200
608.99998522,-5.96764200
609.49998520,-5.76279500
609.99998519,-5.79847400
610.49998518,-6.03531000
610.99998516,-6.69721900
611.49998515,-7.65748000
611.99998513,-8.61097400
612.49998512,-9.45312500
612.99998511,-9.47280900
613.49998509,-8.70632400
613.99998508,-7.38250400
614.49998506,-5.64407000
614.99998505,-4.67458200
615.49998503,-4.54478300
615.99998502,-5.49212600
616.49998501,-7.40342000
616.99998499,-9.13939400
617.49998498,-10.48843000
617.99998496,-10.99655000
618.49998495,-10.56410000
618.99998494,-9.62167700
619.49998492,-8.29478300
619.99998491,-6.88545800
620.49998489,-5.59055100
620.99998488,-5.11811000
621.49998487,-5.52780500
621.99998485,-6.52497500
622.49998484,-7.98228300
622.99998482,-9.33932100
623.49998481,-10.40785000
623.99998479,-10.76464000
624.49998478,-10.34326000
624.99998477,-9.50541300
625.49998475,-8.36183500
625.99998474,-7.19426600
626.49998472,-6.12512300
626.99998471,-6.17126000
627.49998470,-7.31606700
627.99998468,-8.64296200
628.49998467,-10.01415000
628.99998465,-10.84338000
629.49998464,-11.00517000
629.99998462,-10.62623000
630.49998461,-9.72994500
630.99998460,-8.79859600
631.49998458,-7.97859200
631.99998457,-7.24532500
632.49998455,-6.69475800
632.99998454,-6.95004900
633.49998453,-7.96505800
633.99998451,-9.08033900
634.49998450,-10.18147000
634.99998448,-10.64592000
635.49998447,-10.39678000
635.99998446,-9.86404900
636.49998444,-9.09817900
636.99998443,-8.31200800
637.49998441,-7.61011300
637.99998440,-7.39296200
638.49998438,-7.67347400
638.99998437,-8.40981700
639.49998436,-9.51094900
639.99998434,-10.34879000
640.49998433,-10.81324000
640.99998431,-10.85138000
641.49998430,-10.42999000
641.99998429,-9.90280400
642.49998427,-9.33070800
642.99998426,-8.85580700
643.49998424,-8.53161800
643.99998423,-8.68540800
644.49998421,-9.28949300
644.99998420,-9.96801100
645.49998419,-10.62685000
645.99998417,-11.14050000
646.49998416,-11.42040000
646.99998414,-11.42593000
647.49998413,-11.16757000
647.99998412,-10.53826000
648.49998410,-9.62044700
648.99998409,-9.05204200
649.49998407,-8.92347400
649.99998406,-8.87918200
650.49998405,-8.94377400
650.99998403,-9.30917700
651.49998402,-9.92433500
651.99998400,-10.35310000
652.49998399,-10.55856000
652.99998397,-10.38509000
653.49998396,-9.82283500
653.99998395,-9.55893100
654.49998393,-9.62475400
654.99998392,-9.58353800
655.49998390,-9.46419700
655.99998389,-9.45373900
656.49998388,-9.52879000
656.99998386,-9.79822800
657.49998385,-10.24114000
657.99998383,-10.35125000
658.49998382,-10.12426000
658.99998380,-9.85482300
659.49998379,-9.56323800
659.99998378,-9.35716100
660.49998376,-9.27103800
660.99998375,-9.26857800
661.49998373,-9.34362600
661.99998372,-9.60999000
662.49998371,-10.04245000
662.99998369,-10.19623000
663.49998368,-10.04491000
663.99998366,-9.98400600
664.49998365,-10.00615000
664.99998364,-9.97600800
665.49998362,-9.94402000
665.99998361,-9.53186400
666.49998359,-8.80844000
666.99998358,-8.32492600
667.49998356,-8.12007800
667.99998355,-8.33415300
668.49998354,-8.94931100
668.99998352,-9.51525500
669.49998351,-9.93602300
669.99998349,-10.44660000
670.49998348,-10.95411000
670.99998347,-11.11343000
671.49998345,-10.90859000
671.99998344,-10.48290000
672.49998342,-9.87758400
672.99998341,-9.46850400
673.49998339,-9.32886300
673.99998338,-9.17507400
674.49998337,-9.03481800
674.99998335,-9.23228300
675.49998334,-9.71764300
675.99998332,-10.29158000
676.49998331,-10.87414000
676.99998330,-11.23708000
677.49998328,-11.32320000
677.99998327,-11.16142000
678.49998325,-10.76218000
678.99998324,-10.33341000
679.49998322,-9.91203200
679.99998321,-9.86527900
680.49998320,-10.21161000
680.99998318,-10.49151000
681.49998317,-10.70805000
681.99998315,-10.65022000
682.49998314,-10.31496000
682.99998313,-10.10089000
683.49998311,-10.02522000
683.99998310,-9.98154500
684.49998308,-9.99261800
684.99998307,-9.98708100
685.49998306,-9.95386200
685.99998304,-10.11073000
686.49998303,-10.43492000
686.99998301,-10.59732000
687.49998300,-10.58624000
687.99998298,-10.48167000
688.49998297,-10.29835000
688.99998296,-10.05106000
689.49998294,-9.80314900
689.99998293,-9.38299800
690.49998291,-8.84288900
690.99998290,-8.74138700
691.49998289,-9.09756400
691.99998287,-9.37500000
692.49998286,-9.56938900
692.99998284,-9.61614100
693.49998283,-9.49741600
693.99998281,-9.38484200
694.49998280,-9.27657400
694.99998279,-9.27903600
695.49998277,-9.39837600
695.99998276,-9.45066500
696.49998274,-9.42851800
696.99998273,-9.46973400
697.49998272,-9.54539900
697.99998270,-9.75147500
698.49998269,-10.05352000
698.99998267,-10.25714000
699.49998266,-10.32173000
699.99998265,-10.42569000
700.49998263,-10.55549000
700.99998262,-10.44599000
701.49998260,-10.09966000
701.99998259,-9.98462000
702.49998257,-10.09227000
702.99998256,-10.30696000
703.49998255,-10.60901000
703.99998253,-10.81816000
704.49998252,-10.90428000
704.99998250,-10.90674000
705.49998249,-10.83169000
705.99998248,-10.56779000
706.49998246,-10.14641000
706.99998245,-9.93786900
707.49998243,-9.97047100
707.99998242,-10.02830000
708.49998240,-10.11442000
708.99998239,-10.27128000
709.49998238,-10.47613000
709.99998236,-10.58624000
710.49998235,-10.59732000
710.99998233,-10.43738000
711.49998232,-10.12426000
711.99998231,-9.91572300
712.49998229,-9.84005800
712.99998228,-9.79084600
713.49998226,-9.77977300
713.99998225,-9.88127400
714.49998224,-10.07566000
714.99998222,-10.28482000
715.49998221,-10.47921000
715.99998219,-10.58624000
716.49998218,-10.59732000
716.99998216,-10.44291000
717.49998215,-10.15194000
717.99998214,-9.83821400
718.49998212,-9.54724300
718.99998211,-9.39037900
719.49998209,-9.39037900
719.99998208,-9.55524100
720.49998207,-9.87942800
720.99998205,-10.04737000
721.49998204,-10.05782000
721.99998202,-9.84621000
722.49998201,-9.43590000
722.99998199,-9.11171200
723.49998198,-8.89579100
723.99998197,-9.00036900
724.49998195,-9.41067900
724.99998194,-9.84190500
725.49998192,-10.26329000
725.99998191,-10.31804000
726.49998190,-10.00492000
726.99998188,-9.57923100
727.49998187,-9.08280000
727.99998185,-8.76660800
728.49998184,-8.67002900
728.99998182,-8.82320300
729.49998181,-9.20091000
729.99998180,-9.72010300
730.49998178,-10.30327000
730.99998177,-10.71543000
731.49998175,-10.88767000
731.99998174,-10.88767000
732.49998173,-10.71543000
732.99998171,-10.29774000
733.49998170,-9.69242100
733.99998168,-9.27780500
734.49998167,-9.11663300
734.99998166,-9.06742100
735.49998164,-9.14247000
735.99998163,-9.45250900
736.49998161,-9.94955700
736.99998160,-10.38078000
737.49998158,-10.71604000
737.99998157,-10.54811000
738.49998156,-9.87819800
738.99998154,-9.49864600
739.49998153,-9.43405500
739.99998151,-9.50049200
740.49998150,-9.71641300
740.99998149,-9.87573700
741.49998147,-9.96186000
741.99998146,-10.01169000
742.49998144,-10.01169000
742.99998143,-9.95939900
743.49998141,-9.86220500
743.99998140,-9.75516700
744.49998139,-9.64689900
744.99998137,-9.64136300
745.49998136,-9.72748500
745.99998134,-9.92802600
746.49998133,-10.19808000
746.99998132,-10.55795000
747.49998130,-10.94611000
747.99998129,-11.21247000
748.49998127,-11.33120000
748.99998126,-11.13066000
749.49998125,-10.65637000
749.99998123,-10.02768000
750.49998122,-9.32578700
750.99998120,-8.96592000
751.49998119,-9.00959600
751.99998117,-9.16892100
752.49998116,-9.42728800
752.99998115,-9.90526500
753.49998113,-10.55364000
753.99998112,-10.70743000
754.49998110,-10.33957000
754.99998109,-10.06521000
755.49998108,-9.89234600
755.99998106,-9.74655400
756.49998105,-9.67150600
756.99998103,-9.56692900
757.49998102,-9.44820400
757.99998100,-9.49495500
758.49998099,-9.68934500
758.99998098,-9.95263200
759.49998096,-10.25529000
759.99998095,-10.41216000
760.49998093,-10.40108000
760.99998092,-10.29097000
761.49998091,-10.08612000
761.99998089,-9.92925600
762.49998088,-9.84313500
762.99998086,-9.79084600
763.49998085,-9.77977300
763.99998084,-9.88681100
764.49998082,-10.10335000
764.99998081,-10.21592000
765.49998079,-10.22699000
765.99998078,-10.06705000
766.49998076,-9.75393700
766.99998075,-9.54785900
767.49998074,-9.48326700
767.99998072,-9.37377000
768.49998071,-9.22182600
768.99998069,-9.43897600
769.49998068,-10.01230000
769.99998067,-10.17717000
770.49998065,-9.92802600
770.99998064,-9.70287800
771.49998062,-9.49741600
771.99998061,-9.44820400
772.49998059,-9.56692900
772.99998058,-9.67396600
773.49998057,-9.76070300
773.99998055,-9.85912800
774.49998054,-9.94586600
774.99998052,-10.04429000
775.49998051,-10.13103000
775.99998050,-10.22699000
776.49998048,-10.30204000
776.99998047,-10.46198000
777.49998045,-10.68898000
777.99998044,-10.68590000
778.49998043,-10.44783000
778.99998041,-10.33280000
779.49998040,-10.33280000
779.99998038,-10.45091000
780.49998037,-10.69943000
780.99998035,-10.65022000
781.49998034,-10.31496000
781.99998033,-10.10089000
782.49998031,-10.02522000
782.99998030,-9.98154500
783.49998028,-9.99261800
783.99998027,-9.98954200
784.49998026,-9.96801100
784.99998024,-10.08059000
785.49998023,-10.32911000
785.99998021,-10.27682000
786.49998020,-9.93110200
786.99998018,-9.76624000
787.49998017,-9.78777000
787.99998016,-9.85113100
788.49998014,-9.97047100
788.99998013,-9.97293300
789.49998011,-9.86466500
789.99998010,-9.75516700
790.49998009,-9.64689900
790.99998007,-9.65243500
791.49998006,-9.78223300
791.99998004,-9.78531000
792.49998003,-9.66596900
792.99998001,-9.61921700
793.49998000,-9.66289300
793.99997999,-9.50356700
794.49997997,-9.15784900
794.99997996,-9.10310000
795.49997994,-9.34055100
795.99997993,-9.50787400
796.49997992,-9.60506800
796.99997990,-9.60506800
797.49997989,-9.50787400
797.99997987,-9.34362600
798.49997986,-9.11663300
798.99997985,-9.11109700
799.49997983,-9.31594500
799.99997982,-9.57677100
800.49997980,-9.85789800
800.99997979,-10.11872000
801.49997977,-10.32419000
801.99997976,-10.32111000
802.49997975,-10.10519000
802.99997973,-9.88496500
803.49997972,-9.66904400
803.99997970,-9.67150600
804.49997969,-9.89849900
804.99997968,-10.05844000
805.49997966,-10.13349000
805.99997965,-10.22945000
806.49997963,-10.31619000
806.99997962,-10.41769000
807.49997960,-10.51489000
807.99997959,-10.56717000
808.49997958,-10.56717000
808.99997956,-10.51489000
809.49997955,-10.41769000
809.99997953,-10.31065000
810.49997952,-10.20239000
810.99997951,-10.20239000
811.49997949,-10.31065000
811.99997948,-10.42323000
812.49997946,-10.54195000
812.99997945,-10.48720000
813.49997944,-10.26021000
813.99997942,-10.15317000
814.49997941,-10.17470000
814.99997939,-10.18024000
815.49997938,-10.18024000
815.99997936,-10.17470000
816.49997935,-10.15317000
816.99997934,-10.26575000
817.49997932,-10.51427000
817.99997931,-10.46198000
818.49997929,-10.11626000
818.99997928,-9.95386200
819.49997927,-9.98708100
819.99997925,-9.99753900
820.49997924,-10.00861000
820.99997922,-9.96186000
821.49997921,-9.87573700
821.99997919,-9.71333600
822.49997918,-9.48634300
822.99997917,-9.49187900
823.49997915,-9.74101800
823.99997914,-9.79576800
824.49997912,-9.65489600
824.99997911,-9.65797200
825.49997910,-9.80930000
825.99997908,-9.70533900
826.49997907,-9.35900500
826.99997905,-9.24397100
827.49997904,-9.35162400
827.99997903,-9.57738700
828.49997901,-9.92310400
828.99997900,-9.92064400
829.49997898,-9.56323800
829.99997897,-9.39283900
830.49997895,-9.40391200
830.99997894,-9.51402500
831.49997893,-9.71887300
831.99997891,-9.87020200
832.49997890,-9.93479300
832.99997888,-10.08858000
833.49997887,-10.30450000
833.99997886,-10.35433000
834.49997884,-10.22453000
834.99997883,-10.17224000
835.49997881,-10.20485000
835.99997880,-10.10027000
836.49997878,-9.87327700
836.99997877,-9.81545200
837.49997876,-9.92372000
837.99997874,-10.08305000
838.49997873,-10.27744000
838.99997871,-10.43122000
839.49997870,-10.51735000
839.99997869,-10.56410000
840.49997867,-10.55303000
840.99997866,-10.55856000
841.49997864,-10.59178000
841.99997863,-10.43246000
842.49997861,-10.09719000
842.99997860,-9.98708100
843.49997859,-10.10581000
843.99997857,-10.27374000
844.49997856,-10.48967000
844.99997854,-10.54195000
845.49997853,-10.42323000
845.99997852,-10.31619000
846.49997850,-10.22945000
846.99997849,-10.12795000
847.49997847,-10.03076000
847.99997846,-9.97846900
848.49997845,-9.97846900
848.99997843,-10.03629000
849.49997842,-10.15563000
849.99997840,-10.15810000
850.49997839,-10.04983000
850.99997837,-9.94832700
851.49997836,-9.87327700
851.99997835,-9.72440900
852.49997833,-9.54109200
852.99997832,-9.33255400
853.49997830,-9.12770700
853.99997829,-9.07849400
854.49997828,-9.19660400
854.99997826,-9.30671700
855.49997825,-9.40391200
855.99997823,-9.45312500
856.49997822,-9.44205100
856.99997820,-9.44205100
857.49997819,-9.45312500
857.99997818,-9.39530000
858.49997816,-9.26550100
858.99997815,-9.31225400
859.49997813,-9.51771500
859.99997812,-9.72625400
860.49997811,-9.90957200
860.99997809,-10.06644000
861.49997808,-10.17470000
861.99997806,-10.11934000
862.49997805,-9.90342000
862.99997804,-9.74101800
863.49997802,-9.64382400
863.99997801,-9.64136300
864.49997799,-9.72748500
864.99997798,-9.94463500
865.49997796,-10.27990000
865.99997795,-10.32357000
866.49997794,-10.05290000
866.99997792,-10.04737000
867.49997791,-10.29650000
867.99997789,-10.36233000
868.49997788,-10.26513000
868.99997787,-10.05106000
869.49997785,-9.73794300
869.99997784,-9.57246500
870.49997782,-9.56200800
870.99997781,-9.77608200
871.49997779,-10.19746000
871.99997778,-10.46690000
872.49997777,-10.56410000
872.99997775,-10.45399000
873.49997774,-10.14087000
873.99997772,-9.87696700
874.49997771,-9.69365100
874.99997770,-9.58907400
875.49997768,-9.57800100
875.99997767,-9.73794300
876.49997765,-10.05106000
876.99997764,-10.26267000
877.49997763,-10.34879000
877.99997761,-10.34326000
878.49997760,-10.23499000
878.99997758,-10.13349000
879.49997757,-10.05844000
879.99997755,-9.90157400
880.49997754,-9.68565500
880.99997753,-9.63890200
881.49997751,-9.77977300
881.99997750,-9.77977300
882.49997748,-9.63890200
882.99997747,-9.68565500
883.49997746,-9.90157400
883.99997744,-10.06951000
884.49997743,-10.18824000
884.99997741,-10.08120000
885.49997740,-9.75701200
885.99997738,-9.53986200
886.49997737,-9.44266700
886.99997736,-9.50049200
887.49997734,-9.71641300
887.99997733,-9.87573700
888.49997731,-9.96186000
888.99997730,-10.01415000
889.49997729,-10.02522000
889.99997727,-9.91510800
890.49997726,-9.68811500
890.99997724,-9.63582600
891.49997723,-9.76562400
891.99997722,-9.82652600
892.49997720,-9.82652600
892.99997719,-9.77116100
893.49997717,-9.66350800
893.99997716,-9.60814500
894.49997714,-9.60814500
894.99997713,-9.66596900
895.49997712,-9.78531000
895.99997710,-9.77977300
896.49997709,-9.63890200
896.99997707,-9.69365100
897.49997706,-9.94279000
897.99997705,-9.93971300
898.49997703,-9.68011800
898.99997702,-9.67150600
899.49997700,-9.89849900
899.99997699,-10.06398000
900.49997697,-10.16117000
900.99997696,-10.16117000
901.49997695,-10.06398000
901.99997693,-9.90157400
902.49997692,-9.68565500
