Time,Channel B
(ns),(mV)

-100.99999470,-9.68811500
-100.49999472,-9.91510800
-99.99999473,-10.02215000
-99.49999474,-10.00062000
-98.99999476,-9.99507800
-98.49999477,-9.99507800
-97.99999479,-9.99507800
-97.49999480,-9.99507800
-96.99999481,-9.99507800
-96.49999483,-9.99507800
-95.99999484,-9.99753900
-95.49999486,-10.00861000
-94.99999487,-9.95386200
-94.49999488,-9.83452200
-93.99999490,-9.83452200
-93.49999491,-9.95386200
-92.99999493,-10.01169000
-92.49999494,-10.01169000
-91.99999496,-9.95632300
-91.49999497,-9.84867000
-90.99999498,-9.79330700
-90.49999500,-9.79330700
-89.99999501,-9.85113100
-89.49999503,-9.97047100
-88.99999504,-9.97293300
-88.49999505,-9.86466500
-87.99999507,-9.75209100
-87.49999508,-9.63336600
-86.99999510,-9.68811500
-86.49999511,-9.91510800
-85.99999513,-10.02215000
-85.49999514,-10.00062000
-84.99999515,-9.99507800
-84.49999517,-9.99507800
-83.99999518,-9.99507800
-83.49999520,-9.99507800
-82.99999521,-9.99261800
-82.49999522,-9.98154500
-81.99999524,-10.03937000
-81.49999525,-10.16917000
-80.99999527,-10.11688000
-80.49999528,-9.88988600
-79.99999529,-9.78284900
-79.49999531,-9.80437900
-78.99999532,-9.80991600
-78.49999534,-9.80991600
-77.99999535,-9.80437900
-77.49999537,-9.78284900
-76.99999538,-9.89542300
-76.49999539,-10.14395000
-75.99999541,-10.09473000
-75.49999542,-9.75947300
-74.99999544,-9.54232200
-74.49999545,-9.45620000
-73.99999546,-9.46419700
-73.49999548,-9.58353800
-72.99999549,-9.63582600
-72.49999551,-9.61368100
-71.99999552,-9.66350800
-71.49999554,-9.77116100
-70.99999555,-9.82098900
-70.49999556,-9.79884200
-69.99999558,-9.84867000
-69.49999559,-9.95632300
-68.99999561,-10.01415000
-68.49999562,-10.02522000
-67.99999563,-9.91510800
-67.49999565,-9.68811500
-66.99999566,-9.63582600
-66.49999568,-9.76562400
-65.99999569,-9.82098900
-65.49999571,-9.79884200
-64.99999572,-9.85113100
-64.49999573,-9.97047100
-63.99999575,-9.96739700
-63.49999576,-9.83759800
-62.99999578,-9.83452200
-62.49999579,-9.95386200
-61.99999580,-10.00615000
-61.49999582,-9.98400600
-60.99999583,-10.03937000
-60.49999585,-10.16917000
-59.99999586,-10.11380000
-59.49999587,-9.87635300
-58.99999589,-9.82098900
-58.49999590,-9.95078800
-57.99999592,-10.00861000
-57.49999593,-9.99753900
-56.99999595,-9.99753900
-56.49999596,-10.00861000
-55.99999597,-9.95632300
-55.49999599,-9.84867000
-54.99999600,-9.79638200
-54.49999602,-9.80745600
-53.99999603,-9.80745600
-53.49999604,-9.79638200
-52.99999606,-9.84867000
-52.49999607,-9.95632300
-51.99999609,-10.01169000
-51.49999610,-10.01169000
-50.99999612,-9.95386200
-50.49999613,-9.83452200
-49.99999614,-9.83452200
-49.49999616,-9.95386200
-48.99999617,-10.00861000
-48.49999619,-9.99753900
-47.99999620,-9.99753900
-47.49999621,-10.00861000
-46.99999623,-9.95386200
-46.49999624,-9.83452200
-45.99999626,-9.83206100
-45.49999627,-9.94033000
-44.99999628,-10.05290000
-44.49999630,-10.17163000
-43.99999631,-10.11688000
-43.49999633,-9.88988600
-42.99999634,-9.78284900
-42.49999636,-9.80437900
-41.99999637,-9.80991600
-41.49999638,-9.80991600
-40.99999640,-9.81237700
-40.49999641,-9.82344900
-39.99999643,-9.76870100
-39.49999644,-9.64936000
-38.99999645,-9.64689900
-38.49999647,-9.75516700
-37.99999648,-9.85666800
-37.49999650,-9.93171700
-36.99999651,-10.09412000
-36.49999653,-10.33218000
-35.99999654,-10.27682000
-35.49999655,-9.93110200
-34.99999657,-9.76870100
-34.49999658,-9.80191900
-33.99999660,-9.81237700
-33.49999661,-9.82344900
-32.99999662,-9.76870100
-32.49999664,-9.64936000
-31.99999665,-9.65243500
-31.49999667,-9.78223300
-30.99999668,-9.78531000
-30.49999669,-9.66596900
-29.99999671,-9.60568300
-29.49999672,-9.59461100
-28.99999674,-9.70718500
-28.49999675,-9.94525100
-27.99999677,-9.94279000
-27.49999678,-9.69365100
-26.99999679,-9.63336600
-26.49999681,-9.75209100
-25.99999682,-9.86220500
-25.49999684,-9.95939900
-24.99999685,-10.00861000
-24.49999686,-9.99753900
-23.99999688,-9.99507800
-23.49999689,-9.99507800
-22.99999691,-9.99507800
-22.49999692,-9.99507800
-21.99999694,-9.98954200
-21.49999695,-9.96801100
-20.99999696,-10.07751000
-20.49999698,-10.31557000
-19.99999699,-10.31557000
-19.49999701,-10.07751000
-18.99999702,-9.96801100
-18.49999703,-9.98954200
-17.99999705,-9.99507800
-17.49999706,-9.99507800
-16.99999708,-9.99507800
-16.49999709,-9.99507800
-15.99999710,-9.99507800
-15.49999712,-9.99507800
-14.99999713,-9.99753900
-14.49999715,-10.00861000
-13.99999716,-9.95386200
-13.49999718,-9.83452200
-12.99999719,-9.84559500
-12.49999720,-10.00861000
-11.99999722,-9.84928600
-11.49999723,-9.38422800
-10.99999725,-9.27411400
-10.49999726,-9.52325200
-9.99999727,-9.68811500
-9.49999729,-9.76316400
-8.99999730,-9.86466500
-8.49999732,-9.97293300
-7.99999733,-9.97047100
-7.49999735,-9.85113100
-6.99999736,-9.79330700
-6.49999737,-9.79330700
-5.99999739,-9.84867000
-5.49999740,-9.95632300
-4.99999742,-10.01415000
-4.49999743,-10.02522000
-3.99999744,-9.91264700
-3.49999746,-9.67458200
-2.99999747,-9.67458200
-2.49999749,-9.91264700
-1.99999750,-10.02215000
-1.49999752,-10.00062000
-0.99999753,-9.99753900
-0.49999754,-10.00861000
0.00000244,-9.95632300
0.50000243,-9.84867000
1.00000241,-9.79638200
1.50000240,-9.80745600
2.00000239,-9.80191900
2.50000237,-9.76870100
3.00000236,-9.93663900
3.50000234,-10.30450000
4.00000233,-10.24914000
4.50000232,-9.77362200
5.00000230,-9.60568300
5.50000229,-9.74655400
6.00000227,-9.86466500
6.50000226,-9.97293300
7.00000224,-9.97047100
7.50000223,-9.85113100
8.00000222,-9.79330700
8.50000220,-9.79330700
9.00000219,-9.85420700
9.50000217,-9.98400600
10.00000216,-9.92618100
10.50000215,-9.67704200
11.00000213,-9.67458200
11.50000212,-9.91264700
12.00000210,-10.02522000
12.50000209,-10.01415000
13.00000207,-9.95386200
13.50000206,-9.83452200
14.00000205,-9.83759800
14.50000203,-9.96739700
15.00000202,-9.97293300
15.50000200,-9.86466500
16.00000199,-9.75516700
16.50000198,-9.64689900
17.00000196,-9.64689900
17.50000195,-9.75516700
18.00000193,-9.86220500
18.50000192,-9.95939900
19.00000191,-10.01169000
19.50000189,-10.01169000
20.00000188,-9.95386200
20.50000186,-9.83452200
21.00000185,-9.83452200
21.50000183,-9.95386200
22.00000182,-10.01415000
22.50000181,-10.02522000
23.00000179,-9.91818300
23.50000178,-9.70164800
24.00000176,-9.59461100
24.50000175,-9.60568300
25.00000174,-9.66596900
25.50000172,-9.78531000
26.00000171,-9.78223300
26.50000169,-9.65243500
27.00000168,-9.65243500
27.50000166,-9.78223300
28.00000165,-9.78223300
28.50000164,-9.65243500
29.00000162,-9.64936000
29.50000161,-9.76870100
30.00000159,-9.82344900
30.50000158,-9.81237700
31.00000157,-9.81237700
31.50000155,-9.82344900
32.00000154,-9.77423700
32.50000152,-9.67704200
33.00000151,-9.57000400
33.50000150,-9.46173700
34.00000148,-9.45866100
34.50000147,-9.55585600
35.00000145,-9.71825700
35.50000144,-9.93417800
36.00000142,-9.98400600
36.50000141,-9.85420700
37.00000140,-9.79330700
37.50000138,-9.79330700
38.00000137,-9.85420700
38.50000135,-9.98400600
39.00000134,-9.93171700
39.50000133,-9.70472400
40.00000131,-9.59215000
40.50000130,-9.59215000
41.00000128,-9.70164800
41.50000127,-9.91818300
42.00000125,-10.01661000
42.50000124,-9.97354800
43.00000123,-10.07505000
43.50000121,-10.30204000
44.00000120,-10.35679000
44.50000118,-10.23807000
45.00000117,-10.12795000
45.50000116,-10.03076000
46.00000114,-9.98708100
46.50000113,-10.01968000
47.00000111,-9.91818300
47.50000110,-9.70164800
48.00000108,-9.59461100
48.50000107,-9.60568300
49.00000106,-9.66596900
49.50000104,-9.78531000
50.00000103,-9.77977300
50.50000101,-9.63890200
51.00000100,-9.68811500
51.50000099,-9.91510800
52.00000097,-10.02215000
52.50000096,-10.00062000
53.00000094,-9.99261800
53.50000093,-9.98154500
54.00000092,-10.03629000
54.50000090,-10.15563000
55.00000089,-10.16117000
55.50000087,-10.06398000
56.00000086,-9.90157400
56.50000084,-9.68565500
57.00000083,-9.63336600
57.50000082,-9.75209100
58.00000080,-9.86220500
58.50000079,-9.95939900
59.00000077,-10.01169000
59.50000076,-10.01169000
60.00000075,-9.95632300
60.50000073,-9.84867000
61.00000072,-9.79330700
61.50000070,-9.79330700
62.00000069,-9.84867000
62.50000067,-9.95632300
63.00000066,-10.00615000
63.50000065,-9.98400600
64.00000063,-10.03629000
64.50000062,-10.15563000
65.00000060,-10.15563000
65.50000059,-10.03629000
66.00000058,-9.98154500
66.50000056,-9.99261800
67.00000055,-10.00062000
67.50000053,-10.02215000
68.00000052,-9.91510800
68.50000051,-9.68811500
69.00000049,-9.63582600
69.50000048,-9.76562400
70.00000046,-9.82652600
70.50000045,-9.82652600
71.00000043,-9.77116100
71.50000042,-9.66350800
72.00000041,-9.60814500
72.50000039,-9.60814500
73.00000038,-9.66043300
73.50000036,-9.75762700
74.00000035,-9.86220500
74.50000034,-9.95939900
75.00000032,-10.01415000
75.50000031,-10.02522000
76.00000029,-9.91510800
76.50000028,-9.68811500
77.00000026,-9.63336600
77.50000025,-9.75209100
78.00000024,-9.86220500
78.50000022,-9.95939900
79.00000021,-10.00861000
79.50000019,-9.99753900
80.00000018,-9.99753900
80.50000017,-10.00861000
81.00000015,-9.95386200
81.50000014,-9.83452200
82.00000012,-9.83452200
82.50000011,-9.95386200
83.00000010,-10.01415000
83.50000008,-10.02522000
84.00000007,-9.91510800
84.50000005,-9.68811500
85.00000004,-9.63336600
85.50000002,-9.75209100
86.00000001,-9.86466500
86.50000000,-9.97293300
86.99999998,-9.97047100
87.49999997,-9.85113100
87.99999995,-9.79884200
88.49999994,-9.82098900
88.99999993,-9.76870100
89.49999991,-9.64936000
89.99999990,-9.64689900
90.49999988,-9.75516700
90.99999987,-9.86466500
91.49999985,-9.97293300
91.99999984,-9.97047100
92.49999983,-9.85113100
92.99999981,-9.79330700
93.49999980,-9.79330700
93.99999978,-9.85113100
94.49999977,-9.97047100
94.99999976,-9.97047100
95.49999974,-9.85113100
95.99999973,-9.79638200
96.49999971,-9.80745600
96.99999970,-9.81237700
97.49999969,-9.82344900
97.99999967,-9.76562400
98.49999966,-9.63582600
98.99999964,-9.68811500
99.49999963,-9.91510800
99.99999961,-10.02522000
100.49999960,-10.01415000
100.99999959,-9.95386200
101.49999957,-9.83452200
101.99999956,-9.83452200
102.49999954,-9.95386200
102.99999953,-10.01415000
103.49999952,-10.02522000
103.99999950,-9.91264700
104.49999949,-9.67458200
104.99999947,-9.67150600
105.49999946,-9.89849900
105.99999944,-10.06398000
106.49999943,-10.16117000
106.99999942,-10.15810000
107.49999940,-10.04983000
107.99999939,-9.94279000
108.49999937,-9.84559500
108.99999936,-9.79084600
109.49999935,-9.77977300
109.99999933,-9.89234600
110.49999932,-10.13041000
110.99999930,-10.13349000
111.49999929,-9.90649500
111.99999927,-9.74655400
112.49999926,-9.67150600
112.99999925,-9.56692900
113.49999923,-9.44820400
113.99999922,-9.50049200
114.49999920,-9.71641300
114.99999919,-9.87881400
115.49999918,-9.97600800
115.99999916,-9.96739700
116.49999915,-9.83759800
116.99999913,-9.83206100
117.49999912,-9.94033000
117.99999911,-10.05290000
118.49999909,-10.17163000
118.99999908,-10.11934000
119.49999906,-9.90342000
119.99999905,-9.74101800
120.49999903,-9.64382400
120.99999902,-9.65243500
121.49999901,-9.78223300
121.99999899,-9.78223300
122.49999898,-9.65243500
122.99999896,-9.65243500
123.49999895,-9.78223300
123.99999894,-9.78223300
124.49999892,-9.65243500
124.99999891,-9.65243500
125.49999889,-9.78223300
125.99999888,-9.77977300
126.49999886,-9.63890200
126.99999885,-9.68811500
127.49999884,-9.91510800
127.99999882,-10.02522000
128.49999881,-10.01415000
128.99999879,-9.95939900
129.49999878,-9.86220500
129.99999877,-9.75209100
130.49999875,-9.63336600
130.99999874,-9.69365100
131.49999872,-9.94279000
131.99999871,-9.94279000
132.49999870,-9.69365100
132.99999868,-9.63336600
133.49999867,-9.75209100
133.99999865,-9.86220500
134.49999864,-9.95939900
134.99999862,-10.01415000
135.49999861,-10.02522000
135.99999860,-9.91510800
136.49999858,-9.68811500
136.99999857,-9.63336600
137.49999855,-9.75209100
137.99999854,-9.86220500
138.49999853,-9.95939900
138.99999851,-10.01415000
139.49999850,-10.02522000
139.99999848,-9.91510800
140.49999847,-9.68811500
140.99999845,-9.63336600
141.49999844,-9.75209100
141.99999843,-9.86466500
142.49999841,-9.97293300
142.99999840,-9.96739700
143.49999838,-9.83759800
143.99999837,-9.83452200
144.49999836,-9.95386200
144.99999834,-10.01169000
145.49999833,-10.01169000
145.99999831,-9.95632300
146.49999830,-9.84867000
146.99999829,-9.79884200
147.49999827,-9.82098900
147.99999826,-9.76562400
148.49999824,-9.63582600
148.99999823,-9.68565500
149.49999821,-9.90157400
149.99999820,-10.06644000
150.49999819,-10.17470000
150.99999817,-10.11688000
151.49999816,-9.88988600
151.99999814,-9.78284900
152.49999813,-9.80437900
152.99999812,-9.80991600
153.49999810,-9.80991600
153.99999809,-9.80745600
154.49999807,-9.79638200
154.99999806,-9.85113100
155.49999804,-9.97047100
155.99999803,-9.97047100
156.49999802,-9.85113100
156.99999800,-9.79330700
157.49999799,-9.79330700
157.99999797,-9.85113100
158.49999796,-9.97047100
158.99999795,-9.97293300
159.49999793,-9.86466500
159.99999792,-9.75516700
160.49999790,-9.64689900
160.99999789,-9.65489600
161.49999787,-9.79576800
161.99999786,-9.74101800
162.49999785,-9.49187900
162.99999783,-9.48941900
163.49999782,-9.72748500
163.99999780,-9.83452200
164.49999779,-9.80191900
164.99999778,-9.84867000
165.49999776,-9.95632300
165.99999775,-10.00861000
166.49999773,-9.99753900
166.99999772,-9.99507800
167.49999771,-9.99507800
167.99999769,-9.99753900
168.49999768,-10.00861000
168.99999766,-9.95939900
169.49999765,-9.86220500
169.99999763,-9.75516700
170.49999762,-9.64689900
170.99999761,-9.65243500
171.49999759,-9.78223300
171.99999758,-9.78223300
172.49999756,-9.65243500
172.99999755,-9.64689900
173.49999754,-9.75516700
173.99999752,-9.86466500
174.49999751,-9.97293300
174.99999749,-9.97047100
175.49999748,-9.85113100
175.99999746,-9.79638200
176.49999745,-9.80745600
176.99999744,-9.80991600
177.49999742,-9.80991600
177.99999741,-9.80745600
178.49999739,-9.79638200
178.99999738,-9.85420700
179.49999737,-9.98400600
179.99999735,-9.93171700
180.49999734,-9.70472400
180.99999732,-9.59215000
181.49999731,-9.59215000
181.99999730,-9.70164800
182.49999728,-9.91818300
182.99999727,-10.02215000
183.49999725,-10.00062000
183.99999724,-9.99753900
184.49999722,-10.00861000
184.99999721,-9.95386200
185.49999720,-9.83452200
185.99999718,-9.83452200
186.49999717,-9.95386200
186.99999715,-10.01169000
187.49999714,-10.01169000
187.99999713,-9.95632300
188.49999711,-9.84867000
188.99999710,-9.79330700
189.49999708,-9.79330700
189.99999707,-9.85420700
190.49999705,-9.98400600
190.99999704,-9.93171700
191.49999703,-9.70472400
191.99999701,-9.59461100
192.49999700,-9.60568300
192.99999698,-9.65797200
193.49999697,-9.74409400
193.99999696,-9.90096000
194.49999694,-10.10581000
194.99999693,-10.21284000
195.49999691,-10.21284000
195.99999690,-10.10581000
196.49999689,-9.90096000
196.99999687,-9.74101800
197.49999686,-9.64382400
197.99999684,-9.64936000
198.49999683,-9.76870100
198.99999681,-9.82098900
199.49999680,-9.79884200
199.99999679,-9.85113100
200.49999677,-9.97047100
200.99999676,-9.97047100
201.49999674,-9.85113100
201.99999673,-9.79638200
202.49999672,-9.80745600
202.99999670,-9.80991600
203.49999669,-9.80991600
203.99999667,-9.80991600
204.49999666,-9.80991600
204.99999664,-9.80991600
205.49999663,-9.80991600
205.99999662,-9.80991600
206.49999660,-9.80991600
206.99999659,-9.80991600
207.49999657,-9.80991600
207.99999656,-9.80991600
208.49999655,-9.80991600
208.99999653,-9.81545200
209.49999652,-9.83698400
209.99999650,-9.72440900
210.49999649,-9.47588500
210.99999648,-9.53371000
211.49999646,-9.90096000
211.99999645,-9.95632300
212.49999643,-9.69672700
212.99999642,-9.63029000
213.49999640,-9.73855800
213.99999639,-9.90649500
214.49999638,-10.13349000
214.99999636,-10.13349000
215.49999635,-9.90649500
215.99999633,-9.73855800
216.49999632,-9.63029000
216.99999631,-9.68811500
217.49999629,-9.91510800
217.99999628,-10.02215000
218.49999626,-10.00062000
218.99999625,-9.99753900
219.49999623,-10.00861000
219.99999622,-9.95632300
220.49999621,-9.84867000
220.99999619,-9.79330700
221.49999618,-9.79330700
221.99999616,-9.85113100
222.49999615,-9.97047100
222.99999614,-9.97293300
223.49999612,-9.86466500
223.99999611,-9.75516700
224.49999609,-9.64689900
224.99999608,-9.65243500
225.49999606,-9.78223300
225.99999605,-9.77977300
226.49999604,-9.63890200
226.99999602,-9.69365100
227.49999601,-9.94279000
227.99999599,-9.93971300
228.49999598,-9.68011800
228.99999597,-9.67458200
229.49999595,-9.91264700
229.99999594,-10.02768000
230.49999592,-10.02768000
230.99999591,-9.91510800
231.49999590,-9.68811500
231.99999588,-9.63582600
232.49999587,-9.76562400
232.99999585,-9.82098900
233.49999584,-9.79884200
233.99999582,-9.84867000
234.49999581,-9.95632300
234.99999580,-10.01415000
235.49999578,-10.02522000
235.99999577,-9.91510800
236.49999575,-9.68811500
236.99999574,-9.63336600
237.49999573,-9.75209100
237.99999571,-9.86466500
238.49999570,-9.97293300
238.99999568,-9.97047100
239.49999567,-9.85113100
239.99999565,-9.79884200
240.49999564,-9.82098900
240.99999563,-9.77116100
241.49999561,-9.66350800
241.99999560,-9.60568300
242.49999558,-9.59461100
242.99999557,-9.70718500
243.49999556,-9.94525100
243.99999554,-9.94832700
244.49999553,-9.72133400
244.99999551,-9.55032000
245.49999550,-9.43159500
245.99999549,-9.54170700
246.49999547,-9.87696700
246.99999546,-10.03875000
247.49999544,-10.01722000
247.99999543,-9.95632300
248.49999541,-9.84867000
248.99999540,-9.79330700
249.49999539,-9.79330700
249.99999537,-9.84559500
250.49999536,-9.94279000
250.99999534,-10.05290000
251.49999533,-10.17163000
251.99999532,-10.11688000
252.49999530,-9.88988600
252.99999529,-9.77977300
253.49999527,-9.79084600
253.99999526,-9.84867000
254.49999524,-9.95632300
254.99999523,-10.01415000
255.49999522,-10.02522000
255.99999520,-9.91510800
256.49999519,-9.68811500
256.99999517,-9.63890200
257.49999516,-9.77977300
257.99999515,-9.77977300
258.49999513,-9.63890200
258.99999512,-9.69365100
259.49999510,-9.94279000
259.99999509,-9.94279000
260.49999508,-9.69365100
260.99999506,-9.63336600
261.49999505,-9.75209100
261.99999503,-9.86466500
262.49999502,-9.97293300
262.99999500,-9.97293300
263.49999499,-9.86466500
263.99999498,-9.75516700
264.49999496,-9.64689900
264.99999495,-9.64689900
265.49999493,-9.75516700
265.99999492,-9.85912800
266.49999491,-9.94586600
266.99999489,-10.05290000
267.49999488,-10.17163000
267.99999486,-10.11380000
268.49999485,-9.87635300
268.99999483,-9.82098900
269.49999482,-9.95078800
269.99999481,-10.01415000
270.49999479,-10.02522000
270.99999478,-9.91818300
271.49999476,-9.70164800
271.99999475,-9.59215000
272.49999474,-9.59215000
272.99999472,-9.70472400
273.49999471,-9.93171700
273.99999469,-9.98092900
274.49999468,-9.84005800
274.99999466,-9.84313500
275.49999465,-9.99446300
275.99999464,-9.88496500
276.49999462,-9.51710100
276.99999461,-9.51402500
277.49999459,-9.87143200
277.99999458,-10.03875000
278.49999457,-10.01722000
278.99999455,-9.95632300
279.49999454,-9.84867000
279.99999452,-9.79084600
280.49999451,-9.77977300
280.99999450,-9.88988600
281.49999448,-10.11688000
281.99999447,-10.16917000
282.49999445,-10.03937000
282.99999444,-9.98708100
283.49999442,-10.01968000
283.99999441,-9.91510800
284.49999440,-9.68811500
284.99999438,-9.63336600
285.49999437,-9.75209100
285.99999435,-9.85912800
286.49999434,-9.94586600
286.99999433,-10.05290000
287.49999431,-10.17163000
287.99999430,-10.11688000
288.49999428,-9.88988600
288.99999427,-9.77977300
289.49999425,-9.79084600
289.99999424,-9.84867000
290.49999423,-9.95632300
290.99999421,-10.01415000
291.49999420,-10.02522000
291.99999418,-9.91264700
292.49999417,-9.67458200
292.99999416,-9.67150600
293.49999414,-9.89849900
293.99999413,-10.06398000
294.49999411,-10.16117000
294.99999410,-10.15563000
295.49999409,-10.03629000
295.99999407,-9.98154500
296.49999406,-9.99261800
296.99999404,-9.99507800
297.49999403,-9.99507800
297.99999401,-9.99507800
298.49999400,-9.99507800
298.99999399,-10.00062000
299.49999397,-10.02215000
299.99999396,-9.91264700
300.49999394,-9.67458200
300.99999393,-9.67458200
301.49999392,-9.91264700
301.99999390,-10.02215000
302.49999389,-10.00062000
302.99999387,-9.99507800
303.49999386,-9.99507800
303.99999384,-9.99753900
304.49999383,-10.00861000
304.99999382,-9.95939900
305.49999380,-9.86220500
305.99999379,-9.74963100
306.49999377,-9.61983200
306.99999376,-9.73486600
307.49999375,-10.10273000
307.99999373,-10.10581000
308.49999372,-9.74840100
308.99999370,-9.57800100
309.49999369,-9.58907400
309.99999368,-9.70164800
310.49999366,-9.91818300
310.99999365,-10.02522000
311.49999363,-10.01415000
311.99999362,-9.95632300
312.49999360,-9.84867000
312.99999359,-9.79638200
313.49999358,-9.80745600
313.99999356,-9.80745600
314.49999355,-9.79638200
314.99999353,-9.84867000
315.49999352,-9.95632300
315.99999351,-10.01169000
316.49999349,-10.01169000
316.99999348,-9.95078800
317.49999346,-9.82098900
317.99999345,-9.88188800
318.49999343,-10.14149000
318.99999342,-10.09166000
319.49999341,-9.74594000
319.99999339,-9.58107800
320.49999338,-9.60260800
320.99999336,-9.66043300
321.49999335,-9.75762700
321.99999334,-9.85912800
322.49999332,-9.94586600
322.99999331,-10.05290000
323.49999329,-10.17163000
323.99999328,-10.11688000
324.49999327,-9.88988600
324.99999325,-9.77977300
325.49999324,-9.79084600
325.99999322,-9.85113100
326.49999321,-9.97047100
326.99999319,-9.97047100
327.49999318,-9.85113100
327.99999317,-9.79638200
328.49999315,-9.80745600
328.99999314,-9.80745600
329.49999312,-9.79638200
329.99999311,-9.85113100
330.49999310,-9.97047100
330.99999308,-9.97293300
331.49999307,-9.86466500
331.99999305,-9.75516700
332.49999304,-9.64689900
332.99999302,-9.64936000
333.49999301,-9.76870100
333.99999300,-9.82344900
334.49999298,-9.81237700
334.99999297,-9.80745600
335.49999295,-9.79638200
335.99999294,-9.85113100
336.49999293,-9.97047100
336.99999291,-9.97047100
337.49999290,-9.85113100
337.99999288,-9.79330700
338.49999287,-9.79330700
338.99999285,-9.85113100
339.49999284,-9.97047100
339.99999283,-9.97047100
340.49999281,-9.85113100
340.99999280,-9.79330700
341.49999278,-9.79330700
341.99999277,-9.85113100
342.49999276,-9.97047100
342.99999274,-9.97047100
343.49999273,-9.85113100
343.99999271,-9.79330700
344.49999270,-9.79330700
344.99999269,-9.84867000
345.49999267,-9.95632300
345.99999266,-10.01169000
346.49999264,-10.01169000
346.99999263,-9.95939900
347.49999261,-9.86220500
347.99999260,-9.75516700
348.49999259,-9.64689900
348.99999257,-9.64936000
349.49999256,-9.76870100
349.99999254,-9.82652600
350.49999253,-9.82652600
350.99999252,-9.77116100
351.49999250,-9.66350800
351.99999249,-9.60814500
352.49999247,-9.60814500
352.99999246,-9.66043300
353.49999244,-9.75762700
353.99999243,-9.86220500
354.49999242,-9.95939900
354.99999240,-10.01415000
355.49999239,-10.02522000
355.99999237,-9.91818300
356.49999236,-9.70164800
356.99999235,-9.58907400
357.49999233,-9.57800100
357.99999232,-9.74286400
358.49999230,-10.07812000
358.99999229,-10.18824000
359.49999228,-10.06951000
359.99999226,-9.90157400
360.49999225,-9.68565500
360.99999223,-9.63582600
361.49999222,-9.76562400
361.99999220,-9.82098900
362.49999219,-9.79884200
362.99999218,-9.85420700
363.49999216,-9.98400600
363.99999215,-9.93171700
364.49999213,-9.70472400
364.99999212,-9.59768700
365.49999211,-9.61921700
365.99999209,-9.61921700
366.49999208,-9.59768700
366.99999206,-9.70164800
367.49999205,-9.91818300
367.99999203,-10.02522000
368.49999202,-10.01415000
368.99999201,-9.95939900
369.49999199,-9.86220500
369.99999198,-9.75209100
370.49999196,-9.63336600
370.99999195,-9.69119100
371.49999194,-9.92864100
371.99999192,-9.98092900
372.49999191,-9.84005800
372.99999189,-9.83452200
373.49999188,-9.95386200
373.99999187,-10.01415000
374.49999185,-10.02522000
374.99999184,-9.91818300
375.49999182,-9.70164800
375.99999181,-9.59215000
376.49999179,-9.59215000
376.99999178,-9.69918700
377.49999177,-9.90403500
377.99999175,-10.06398000
378.49999174,-10.16117000
378.99999172,-10.15563000
379.49999171,-10.03629000
379.99999170,-9.98154500
380.49999168,-9.99261800
380.99999167,-9.99507800
381.49999165,-9.99507800
381.99999164,-9.99507800
382.49999162,-9.99507800
382.99999161,-10.00308000
383.49999160,-10.03629000
383.99999158,-9.87696700
384.49999157,-9.54170700
384.99999155,-9.43159500
385.49999154,-9.55032000
385.99999153,-9.71272100
386.49999151,-9.90711100
386.99999150,-10.06644000
387.49999148,-10.17470000
387.99999147,-10.11934000
388.49999145,-9.90342000
388.99999144,-9.73855800
389.49999143,-9.63029000
389.99999141,-9.68811500
390.49999140,-9.91510800
390.99999138,-10.02215000
391.49999137,-10.00062000
391.99999136,-9.99507800
392.49999134,-9.99507800
392.99999133,-9.99753900
393.49999131,-10.00861000
393.99999130,-9.95632300
394.49999129,-9.84867000
394.99999127,-9.79638200
395.49999126,-9.80745600
395.99999124,-9.80991600
396.49999123,-9.80991600
396.99999121,-9.80745600
397.49999120,-9.79638200
397.99999119,-9.84867000
398.49999117,-9.95632300
398.99999116,-10.01169000
399.49999114,-10.01169000
399.99999113,-9.95632300
400.49999112,-9.84867000
400.99999110,-9.79638200
401.49999109,-9.80745600
401.99999107,-9.80745600
402.49999106,-9.79638200
402.99999104,-9.85420700
403.49999103,-9.98400600
403.99999102,-9.92864100
404.49999100,-9.69119100
404.99999099,-9.63336600
405.49999097,-9.75209100
405.99999096,-9.86220500
406.49999095,-9.95939900
406.99999093,-10.01415000
407.49999092,-10.02522000
407.99999090,-9.91510800
408.49999089,-9.68811500
408.99999088,-9.63582600
409.49999086,-9.76562400
409.99999085,-9.82098900
410.49999083,-9.79884200
410.99999082,-9.85420700
411.49999080,-9.98400600
411.99999079,-9.92864100
412.49999078,-9.69119100
412.99999076,-9.63582600
413.49999075,-9.76562400
413.99999073,-9.82652600
414.49999072,-9.82652600
414.99999071,-9.77116100
415.49999069,-9.66350800
415.99999068,-9.60814500
416.49999066,-9.60814500
416.99999065,-9.66350800
417.49999063,-9.77116100
417.99999062,-9.82098900
418.49999061,-9.79884200
418.99999059,-9.85420700
419.49999058,-9.98400600
419.99999056,-9.92864100
420.49999055,-9.69119100
420.99999054,-9.63336600
421.49999052,-9.75209100
421.99999051,-9.86220500
422.49999049,-9.95939900
422.99999048,-10.01415000
423.49999047,-10.02522000
423.99999045,-9.91510800
424.49999044,-9.68811500
424.99999042,-9.63336600
425.49999041,-9.75209100
425.99999039,-9.85666800
426.49999038,-9.93171700
426.99999037,-10.09166000
427.49999035,-10.31865000
427.99999034,-10.31557000
428.49999032,-10.07751000
428.99999031,-9.96493600
429.49999030,-9.97600800
429.99999028,-10.03629000
430.49999027,-10.15563000
430.99999025,-10.15810000
431.49999024,-10.04983000
431.99999022,-9.94279000
432.49999021,-9.84559500
432.99999020,-9.79638200
433.49999018,-9.80745600
433.99999017,-9.80745600
434.49999015,-9.79638200
434.99999014,-9.85420700
435.49999013,-9.98400600
435.99999011,-9.93171700
436.49999010,-9.70472400
436.99999008,-9.59768700
437.49999007,-9.61921700
437.99999006,-9.62229300
438.49999004,-9.61122000
438.99999003,-9.66596900
439.49999001,-9.78531000
439.99999000,-9.77977300
440.49998998,-9.63890200
440.99998997,-9.68565500
441.49998996,-9.90157400
441.99998994,-10.06090000
442.49998993,-10.14702000
442.99998991,-10.19685000
443.49998990,-10.19685000
443.99998989,-10.14149000
444.49998987,-10.03383000
444.99998986,-9.98400600
445.49998984,-10.00615000
445.99998983,-9.95939900
446.49998981,-9.86220500
446.99998980,-9.75762700
447.49998979,-9.66043300
447.99998977,-9.61122000
448.49998976,-9.62229300
448.99998974,-9.62229300
449.49998973,-9.61122000
449.99998972,-9.66350800
450.49998970,-9.77116100
450.99998969,-9.82652600
451.49998967,-9.82652600
451.99998966,-9.76870100
452.49998964,-9.64936000
452.99998963,-9.64382400
453.49998962,-9.74101800
453.99998960,-9.90342000
454.49998959,-10.11934000
454.99998957,-10.16917000
455.49998956,-10.03937000
455.99998955,-9.98400600
456.49998953,-10.00615000
456.99998952,-9.95386200
457.49998950,-9.83452200
457.99998949,-9.83206100
458.49998948,-9.94033000
458.99998946,-10.04983000
459.49998945,-10.15810000
459.99998943,-10.15563000
460.49998942,-10.03629000
460.99998940,-9.98154500
461.49998939,-9.99261800
461.99998938,-9.99753900
462.49998936,-10.00861000
462.99998935,-9.95386200
463.49998933,-9.83452200
463.99998932,-9.83759800
464.49998931,-9.96739700
464.99998929,-9.97047100
465.49998928,-9.85113100
465.99998926,-9.79330700
466.49998925,-9.79330700
466.99998923,-9.85420700
467.49998922,-9.98400600
467.99998921,-9.92864100
468.49998919,-9.69119100
468.99998918,-9.63029000
469.49998916,-9.73855800
469.99998915,-9.90096000
470.49998914,-10.10581000
470.99998912,-10.21038000
471.49998911,-10.19931000
471.99998909,-10.14149000
472.49998908,-10.03383000
472.99998907,-9.97846900
473.49998905,-9.97846900
473.99998904,-10.03937000
474.49998902,-10.16917000
474.99998901,-10.11688000
475.49998899,-9.88988600
475.99998898,-9.78284900
476.49998897,-9.80437900
476.99998895,-9.80745600
477.49998894,-9.79638200
477.99998892,-9.85113100
478.49998891,-9.97047100
478.99998890,-9.97047100
479.49998888,-9.85113100
479.99998887,-9.79330700
480.49998885,-9.79330700
480.99998884,-9.85420700
481.49998882,-9.98400600
481.99998881,-9.92864100
482.49998880,-9.69119100
482.99998878,-9.64136300
483.49998877,-9.79330700
483.99998875,-9.74347900
484.49998874,-9.50602800
484.99998873,-9.44512700
485.49998871,-9.55339500
485.99998870,-9.71579600
486.49998868,-9.92064400
486.99998867,-10.02215000
487.49998866,-10.00062000
487.99998864,-9.99753900
488.49998863,-10.00861000
488.99998861,-9.95386200
489.49998860,-9.83452200
489.99998858,-9.83452200
490.49998857,-9.95386200
490.99998856,-10.01169000
491.49998854,-10.01169000
491.99998853,-9.95386200
492.49998851,-9.83452200
492.99998850,-9.83206100
493.49998849,-9.94033000
493.99998847,-10.04983000
494.49998846,-10.15810000
494.99998844,-10.15563000
495.49998843,-10.03629000
495.99998841,-9.98400600
496.49998840,-10.00615000
496.99998839,-9.95939900
497.49998837,-9.86220500
497.99998836,-9.75762700
498.49998834,-9.66043300
498.99998833,-9.61368100
499.49998832,-9.63582600
499.99998830,-9.58599900
500.49998829,-9.47834600
500.99998827,-9.41744600
501.49998826,-9.39591400
501.99998824,-9.55770100
502.49998823,-9.89296200
502.99998822,-9.99446300
503.49998820,-9.84313500
503.99998819,-9.83759800
504.49998817,-9.96739700
504.99998816,-9.96739700
505.49998815,-9.83759800
505.99998813,-9.83452200
506.49998812,-9.95386200
506.99998810,-10.01169000
507.49998809,-10.01169000
507.99998808,-9.95386200
508.49998806,-9.83452200
508.99998805,-9.83206100
509.49998803,-9.94033000
509.99998802,-10.04983000
510.49998800,-10.15810000
510.99998799,-10.15563000
511.49998798,-10.03629000
511.99998796,-9.98400600
512.49998795,-10.00615000
512.99998793,-9.95386200
513.49998792,-9.83452200
513.99998791,-9.83452200
514.49998789,-9.95386200
514.99998788,-10.01169000
515.49998786,-10.01169000
515.99998785,-9.95632300
516.49998783,-9.84867000
516.99998782,-9.79330700
517.49998781,-9.79330700
517.99998779,-9.85420700
518.49998778,-9.98400600
518.99998776,-9.92864100
519.49998775,-9.69119100
519.99998774,-9.63336600
520.49998772,-9.75209100
520.99998771,-9.85912800
521.49998769,-9.94586600
521.99998768,-10.04983000
522.49998767,-10.15810000
522.99998765,-10.15810000
523.49998764,-10.04983000
523.99998762,-9.94279000
524.49998761,-9.84559500
524.99998759,-9.80191900
525.49998758,-9.83452200
525.99998757,-9.72994500
526.49998755,-9.50295300
526.99998754,-9.44512700
527.49998752,-9.55339500
527.99998751,-9.72133400
528.49998750,-9.94832700
528.99998748,-9.94525100
529.49998747,-9.70718500
529.99998745,-9.59215000
530.49998744,-9.59215000
530.99998742,-9.70472400
531.49998741,-9.93171700
531.99998740,-9.98092900
532.49998738,-9.84005800
532.99998737,-9.83452200
533.49998735,-9.95386200
533.99998734,-10.00861000
534.49998733,-9.99753900
534.99998731,-9.99753900
535.49998730,-10.00861000
535.99998728,-9.95386200
536.49998727,-9.83452200
536.99998726,-9.83759800
537.49998724,-9.96739700
537.99998723,-9.96739700
538.49998721,-9.83759800
538.99998720,-9.83759800
539.49998718,-9.96739700
539.99998717,-9.97047100
540.49998716,-9.85113100
540.99998714,-9.79638200
541.49998713,-9.80745600
541.99998711,-9.81237700
542.49998710,-9.82344900
542.99998709,-9.77423700
543.49998707,-9.67704200
543.99998706,-9.57000400
544.49998704,-9.46173700
544.99998703,-9.46173700
545.49998701,-9.57000400
545.99998700,-9.67396600
546.49998699,-9.76070300
546.99998697,-9.86774200
547.49998696,-9.98646600
547.99998694,-9.92618100
548.49998693,-9.67704200
548.99998692,-9.67150600
549.49998690,-9.89849900
549.99998689,-10.06398000
550.49998687,-10.16117000
550.99998686,-10.16117000
551.49998685,-10.06398000
551.99998683,-9.89849900
552.49998682,-9.67150600
552.99998680,-9.67150600
553.49998679,-9.89849900
553.99998677,-10.05844000
554.49998676,-10.13349000
554.99998675,-10.23807000
555.49998673,-10.35679000
555.99998672,-10.29897000
556.49998670,-10.06151000
556.99998669,-10.00923000
557.49998668,-10.15010000
557.99998666,-10.16117000
558.49998665,-10.06398000
558.99998663,-9.89603700
559.49998662,-9.65797200
559.99998660,-9.71026000
560.49998659,-10.04552000
560.99998658,-10.28482000
561.49998656,-10.45829000
561.99998655,-10.06521000
562.49998653,-9.21321300
562.99998652,-8.13607200
563.49998651,-7.02509800
563.99998649,-6.00885800
564.49998648,-5.28604800
564.99998646,-4.87204700
565.49998645,-4.93786900
565.99998643,-4.50172200
566.49998642,-3.69156000
566.99998641,-3.07947800
567.49998639,-2.77805100
567.99998638,-2.38496500
568.49998636,-2.00725900
568.99998635,-1.77103800
569.49998634,-1.76119600
569.99998632,-1.47330200
570.49998631,-0.99840060
570.99998629,-0.48474410
571.49998628,-0.02153051
571.99998627,0.33280020
572.49998625,0.50504430
572.99998624,0.56040840
573.49998622,0.49581690
573.99998621,0.13902560
574.49998619,-0.44352850
574.99998618,-1.02300700
575.49998617,-1.53051200
575.99998615,-1.63201300
576.49998614,-1.30782500
576.99998612,-0.87413870
577.49998611,-0.35556100
577.99998610,-0.12180120
578.49998608,-0.15378940
578.99998607,-0.84338090
579.49998605,-2.11737200
579.99998604,-2.81250000
580.49998602,-2.86663400
580.99998601,-2.51476400
581.49998600,-1.72613200
581.99998598,-1.44562000
582.49998597,-1.67199800
582.99998595,-2.10629900
583.49998594,-2.72207200
583.99998593,-3.07640200
584.49998591,-3.09731800
584.99998590,-3.23757400
585.49998588,-3.44242100
585.99998587,-3.55253400
586.49998586,-3.56360700
586.99998584,-3.42581200
587.49998583,-3.20004900
587.99998581,-2.56828200
588.49998580,-1.60679100
588.99998578,-1.21124500
589.49998577,-1.37303100
589.99998576,-2.20226400
590.49998574,-3.57283400
590.99998573,-4.88004400
591.49998571,-5.94857300
591.99998570,-6.34965600
592.49998569,-5.99286400
592.99998567,-5.41892200
593.49998566,-4.70718500
593.99998564,-3.72108700
594.49998563,-2.60888300
594.99998561,-2.07861700
595.49998560,-2.18688500
595.99998559,-2.80511800
596.49998557,-3.82997000
596.99998556,-5.12918300
597.49998554,-6.51082700
597.99998553,-7.29945800
598.49998552,-7.39665300
598.99998550,-6.75073800
599.49998549,-5.41154100
599.99998547,-4.34608700
600.49998546,-3.65526600
600.99998545,-3.66879900
601.49998543,-4.41437000
601.99998542,-5.20792300
602.49998540,-5.96333600
602.99998539,-6.52620500
603.49998537,-6.79564400
603.99998536,-6.78211100
604.49998535,-6.45792300
604.99998533,-6.12819900
605.49998532,-5.80401100
605.99998530,-5.79047700
606.49998529,-6.05991600
606.99998528,-6.61724900
607.49998526,-7.35113100
607.99998525,-8.23818900
608.49998523,-9.15600400
608.99998522,-9.48818800
609.49998520,-9.22982200
609.99998519,-8.28248000
610.49998518,-6.75935000
610.99998516,-5.62807600
611.49998515,-4.96862600
611.99998513,-5.49089500
612.49998512,-7.12106300
612.99998511,-8.75246000
613.49998509,-10.18824000
613.99998508,-11.01193000
614.49998506,-11.08760000
614.99998505,-10.51366000
615.49998503,-9.36946300
615.99998502,-7.95460100
616.49998501,-6.45423200
616.99998499,-5.72342500
617.49998498,-5.86429600
617.99998496,-6.54835100
618.49998495,-7.69192900
618.99998494,-8.99421800
619.49998492,-10.26759000
619.99998491,-10.95472000
620.49998489,-10.97625000
620.99998488,-10.18270000
621.49998487,-8.66018700
621.99998485,-7.39050100
622.49998484,-6.51636300
622.99998482,-6.36257300
623.49998481,-6.95620100
623.99998479,-8.01365600
624.49998478,-9.41744600
624.99998477,-10.36233000
625.49998475,-10.72958000
625.99998474,-10.50135000
626.49998472,-9.66966000
626.99998471,-8.89456100
627.49998470,-8.30216500
627.99998468,-7.57997000
628.49998467,-6.84547200
628.99998465,-6.71875000
629.49998464,-7.17212100
629.99998462,-8.23203700
630.49998461,-9.78715500
630.99998460,-10.63607000
631.49998458,-10.69021000
631.99998457,-10.19808000
632.49998455,-9.18307000
632.99998454,-8.28740100
633.49998453,-7.61811000
633.99998451,-7.35174700
634.49998450,-7.51353300
634.99998448,-8.25233700
635.49998447,-9.48326700
635.99998446,-10.31865000
636.49998444,-10.64222000
636.99998443,-10.72404000
637.49998441,-10.50812000
637.99998440,-10.19746000
638.49998438,-9.84190500
638.99998437,-9.36638700
639.49998436,-8.82628000
639.99998434,-8.76599400
640.49998433,-9.17630400
640.99998431,-9.75024500
641.49998430,-10.40846000
641.99998429,-11.02424000
642.49998427,-11.48745000
642.99998426,-11.75935000
643.49998424,-11.82517000
643.99998423,-11.24815000
644.49998421,-10.10335000
644.99998420,-9.31225400
645.49998419,-8.96776500
645.99998417,-8.92901000
646.49998416,-9.23105200
646.99998414,-9.70657000
647.49998413,-10.30020000
647.99998412,-10.72342000
648.49998410,-10.92889000
648.99998409,-10.75849000
649.49998407,-10.20731000
649.99998406,-9.88558100
650.49998405,-9.82098900
650.99998403,-9.84005800
651.49998402,-9.98092900
651.99998400,-9.92064400
652.49998399,-9.64997500
652.99998397,-9.75455200
653.49998396,-10.21961000
653.99998395,-10.39001000
654.49998393,-10.27067000
654.99998392,-10.05905000
655.49998390,-9.77854300
655.99998389,-9.46542700
656.49998388,-9.16338500
656.99998386,-9.05634800
657.49998385,-9.15292700
657.99998383,-9.41683000
658.49998382,-9.81606800
658.99998380,-10.13779000
659.49998379,-10.35372000
659.99998378,-10.24114000
660.49998376,-9.79822800
660.99998375,-9.54232200
661.49998373,-9.52140700
661.99998372,-9.27718900
662.49998371,-8.87795200
662.99998369,-8.56237600
663.49998368,-8.36798700
663.99998366,-8.36245100
664.49998365,-8.53531000
664.99998364,-8.94131400
665.49998362,-9.50233700
665.99998361,-10.12303000
666.49998359,-10.70620000
666.99998358,-11.01685000
667.49998356,-11.00578000
667.99998355,-10.73634000
668.49998354,-10.22884000
668.99998352,-9.80561000
669.49998351,-9.51402500
669.99998349,-9.46727400
670.49998348,-9.68380800
670.99998347,-9.94463500
671.49998345,-10.21407000
671.99998344,-10.51673000
672.49998342,-10.78617000
672.99998341,-11.04454000
673.49998339,-11.24938000
673.99998338,-11.24631000
674.49998337,-11.03039000
674.99998335,-10.82185000
675.49998334,-10.64961000
675.99998332,-10.44353000
676.49998331,-10.23807000
676.99998330,-10.19439000
677.49998328,-10.33526000
677.99998327,-10.34879000
678.49998325,-10.26267000
678.99998324,-10.05106000
679.49998322,-9.73794300
679.99998321,-9.57246500
680.49998320,-9.56200800
680.99998318,-9.77054600
681.49998317,-10.17040000
681.99998315,-10.53580000
682.49998314,-10.81631000
682.99998313,-10.97010000
683.49998311,-10.97010000
683.99998310,-10.81324000
684.49998308,-10.52227000
684.99998307,-10.21715000
685.49998306,-9.95816900
685.99998304,-9.65059000
686.49998303,-9.34793300
686.99998301,-9.24950800
687.49998300,-9.37930500
687.99998298,-9.49434000
688.49998297,-9.60260800
688.99998296,-9.59707200
689.49998294,-9.46727400
689.99998293,-9.46419700
690.49998291,-9.58353800
690.99998290,-9.64689900
691.49998289,-9.66842900
691.99998287,-9.50110600
692.49998286,-9.14431600
692.99998284,-9.13631800
693.49998283,-9.45989100
693.99998281,-9.77608200
694.49998280,-10.04552000
694.99998279,-10.30389000
695.49998277,-10.50935000
695.99998276,-10.50381000
696.49998274,-10.27682000
696.99998273,-10.10888000
697.49998272,-10.00062000
697.99998270,-10.05044000
698.49998269,-10.24483000
698.99998267,-10.51366000
699.49998266,-10.83784000
699.99998265,-10.88767000
700.49998263,-10.64961000
700.99998262,-10.48167000
701.49998260,-10.38447000
701.99998259,-10.39309000
702.49998257,-10.52288000
702.99998256,-10.53150000
703.49998255,-10.43430000
703.99998253,-10.27436000
704.49998252,-10.06951000
704.99998250,-9.96247500
705.49998249,-9.96247500
705.99998248,-10.07197000
706.49998246,-10.28851000
706.99998245,-10.39801000
707.49998243,-10.39801000
707.99998242,-10.28851000
708.49998240,-10.07197000
708.99998239,-9.95939900
709.49998238,-9.94832700
709.99998236,-10.10827000
710.49998235,-10.42138000
710.99998233,-10.63853000
711.49998232,-10.74619000
711.99998231,-10.63115000
712.49998229,-10.28482000
712.99998228,-10.18086000
713.49998226,-10.33218000
713.99998225,-10.34326000
714.49998224,-10.23499000
714.99998222,-10.13103000
715.49998221,-10.04429000
715.99998219,-9.94586600
716.49998218,-9.85912800
716.99998216,-9.76316400
717.49998215,-9.68811500
717.99998214,-9.54232200
718.49998212,-9.36946300
718.99998211,-9.10617500
719.49998209,-8.78198700
719.99998208,-8.72477800
720.49998207,-8.92962600
720.99998205,-9.24827800
721.49998204,-9.64751400
721.99998202,-9.91141600
722.49998201,-10.00861000
722.99998199,-9.90957200
723.49998198,-9.64013200
723.99998197,-9.15661900
724.49998195,-8.49778600
724.99998194,-8.38521200
725.49998192,-8.81705200
725.99998191,-9.34485600
726.49998190,-9.90526500
726.99998188,-10.42200000
727.49998187,-10.81078000
727.99998185,-10.90920000
728.49998184,-10.69328000
728.99998182,-10.37709000
729.49998181,-9.99938500
729.99998180,-9.63398100
730.49998178,-9.33193800
730.99998177,-9.28518700
731.49998175,-9.51218000
731.99998174,-9.72625400
732.49998173,-9.90957200
732.99998171,-10.06398000
733.49998170,-10.16117000
733.99998168,-10.16609000
734.49998167,-10.09104000
734.99998166,-9.82467900
735.49998164,-9.39222300
735.99998163,-9.23289900
736.49998161,-9.36269600
736.99998160,-9.52509800
737.49998158,-9.70841500
737.99998157,-9.91449300
738.49998156,-10.10888000
738.99998154,-10.22146000
739.49998153,-10.25406000
739.99998151,-9.98462000
740.49998150,-9.43343900
740.99998149,-9.21382800
741.49998147,-9.33255400
741.99998146,-9.59091900
742.49998144,-9.94709600
742.99998143,-10.46875000
743.49998141,-11.08391000
743.99998140,-11.34473000
744.49998139,-11.21494000
744.99998137,-10.95165000
745.49998136,-10.58501000
745.99998134,-10.11503000
746.49998133,-9.60752900
746.99998132,-9.41006300
747.49998130,-9.57246500
747.99998129,-9.63029000
748.49998127,-9.58661400
748.99998126,-9.73794300
749.49998125,-10.05106000
749.99998123,-10.26821000
750.49998122,-10.37586000
750.99998120,-10.27190000
751.49998119,-9.96924100
751.99998117,-9.65305000
752.49998116,-9.36208200
752.99998115,-9.20521600
753.49998113,-9.20521600
753.99998112,-9.35654400
754.49998110,-9.62598400
754.99998109,-10.05167000
755.49998108,-10.59240000
755.99998106,-10.69390000
756.49998105,-10.33711000
756.99998103,-10.06521000
757.49998102,-9.89234600
757.99998100,-9.74409400
758.49998099,-9.65797200
758.99998098,-9.61122000
759.49998096,-9.62229300
759.99998095,-9.61675600
760.49998093,-9.58353800
760.99998092,-9.74286400
761.49998091,-10.07812000
761.99998089,-10.19070000
762.49998088,-10.08305000
762.99998086,-9.87389300
763.49998085,-9.59338000
763.99998084,-9.27472900
764.49998082,-8.95115600
764.99998081,-8.95115600
765.49998079,-9.27472900
765.99998078,-9.59891700
766.49998076,-9.90157400
766.99998075,-9.99999900
767.49998074,-9.87020200
767.99998072,-9.75516700
768.49998071,-9.64689900
768.99998069,-9.64936000
769.49998068,-9.76870100
769.99998067,-9.81545200
770.49998065,-9.77177600
770.99998064,-9.92802600
771.49998062,-10.26329000
771.99998061,-10.36233000
772.49998059,-10.19993000
772.99998058,-10.24360000
773.49998057,-10.47059000
773.99998055,-10.58071000
774.49998054,-10.56964000
774.99998052,-10.50935000
775.49998051,-10.39001000
775.99998050,-10.39309000
776.49998048,-10.52288000
776.99998047,-10.52842000
777.49998045,-10.42015000
777.99998044,-10.31619000
778.49998043,-10.22945000
778.99998041,-10.13103000
779.49998040,-10.04429000
779.99998038,-9.93725300
780.49998037,-9.81852800
780.99998035,-9.87327700
781.49998034,-10.10027000
781.99998033,-10.21284000
782.49998031,-10.21284000
782.99998030,-10.10581000
783.49998028,-9.90096000
783.99998027,-9.74409400
784.49998026,-9.65797200
784.99998024,-9.61122000
785.49998023,-9.62229300
785.99998021,-9.62475400
786.49998020,-9.62475400
786.99998018,-9.63029000
787.49998017,-9.65182000
787.99998016,-9.54785900
788.49998014,-9.33132400
788.99998013,-9.22182600
789.49998011,-9.22182600
789.99998010,-9.33439900
790.49998009,-9.56139200
790.99998007,-9.61921700
791.49998006,-9.51094900
791.99998004,-9.34608700
792.49998003,-9.13078200
792.99998001,-9.08095500
793.49998000,-9.21075200
793.99997999,-9.26242600
794.49997997,-9.22982200
794.99997996,-9.33132400
795.49997994,-9.54785900
795.99997993,-9.64936000
796.49997992,-9.61675600
796.99997990,-9.66043300
797.49997989,-9.75762700
797.99997987,-9.86466500
798.49997986,-9.97293300
798.99997985,-9.96739700
799.49997983,-9.83759800
799.99997982,-9.83206100
800.49997980,-9.94033000
800.99997979,-10.04737000
801.49997977,-10.14456000
801.99997976,-10.19131000
802.49997975,-10.16917000
802.99997973,-10.21900000
803.49997972,-10.32665000
803.99997970,-10.38201000
804.49997969,-10.38201000
804.99997968,-10.32111000
805.49997966,-10.19131000
805.99997965,-10.24914000
806.49997963,-10.49828000
806.99997962,-10.50074000
807.49997960,-10.26267000
807.99997959,-10.15010000
808.49997958,-10.16117000
808.99997956,-10.21900000
809.49997955,-10.32665000
809.99997953,-10.37894000
810.49997952,-10.36786000
810.99997951,-10.36294000
811.49997949,-10.35187000
811.99997948,-10.40662000
812.49997946,-10.52596000
812.99997945,-10.52842000
813.49997944,-10.42015000
813.99997942,-10.31619000
814.49997941,-10.22945000
814.99997939,-10.13103000
815.49997938,-10.04429000
815.99997936,-9.94586600
816.49997935,-9.85912800
816.99997934,-9.75762700
817.49997932,-9.66043300
817.99997931,-9.60814500
818.49997929,-9.60814500
818.99997928,-9.66904400
819.49997927,-9.79884200
819.99997925,-9.74347900
820.49997924,-9.50602800
820.99997922,-9.45066500
821.49997921,-9.58046200
821.99997919,-9.64136300
822.49997918,-9.64136300
822.99997917,-9.58599900
823.49997915,-9.47834600
823.99997914,-9.42298100
824.49997912,-9.42298100
824.99997911,-9.47834600
825.49997910,-9.58599900
825.99997908,-9.63275100
826.49997907,-9.60014700
826.99997905,-9.70164800
827.49997904,-9.91818300
827.99997903,-10.02215000
828.49997901,-10.00062000
828.99997900,-9.99261800
829.49997898,-9.98154500
829.99997897,-10.03383000
830.49997895,-10.14149000
830.99997894,-10.19685000
831.49997893,-10.19685000
831.99997891,-10.14149000
832.49997890,-10.03383000
832.99997888,-9.97846900
833.49997887,-9.97846900
833.99997886,-10.02830000
834.49997884,-10.11442000
834.99997883,-10.27682000
835.49997881,-10.50381000
835.99997880,-10.50074000
836.49997878,-10.26267000
836.99997877,-10.14764000
837.49997876,-10.14764000
837.99997874,-10.25714000
838.49997873,-10.47367000
838.99997871,-10.58071000
839.49997870,-10.56964000
839.99997869,-10.51181000
840.49997867,-10.40416000
840.99997866,-10.35433000
841.49997864,-10.37648000
841.99997863,-10.33218000
842.49997861,-10.24606000
842.99997860,-10.08674000
843.49997859,-9.87081600
843.99997857,-9.82098900
844.49997856,-9.95078800
844.99997854,-10.00615000
845.49997853,-9.98400600
845.99997852,-10.03937000
846.49997850,-10.16917000
846.99997849,-10.12795000
847.49997847,-9.94463500
847.99997846,-9.63152000
848.49997845,-9.23228300
848.99997843,-8.97145600
849.49997842,-8.88471900
849.99997840,-8.93700700
850.49997839,-9.12032400
850.99997837,-9.44143700
851.49997836,-9.87389300
851.99997835,-9.98092900
852.49997833,-9.75393700
852.99997832,-9.47896200
853.49997830,-9.16646100
853.99997829,-9.06434500
854.49997828,-9.19414300
854.99997826,-9.30364100
855.49997825,-9.39037900
855.99997823,-9.48634300
856.49997822,-9.56139200
856.99997820,-9.71579600
857.49997819,-9.92064400
857.99997818,-10.02215000
858.49997816,-10.00062000
858.99997815,-10.00062000
859.49997813,-10.02215000
859.99997812,-9.91510800
860.49997811,-9.68811500
860.99997809,-9.62783000
861.49997808,-9.72502400
861.99997806,-9.94217400
862.49997805,-10.26636000
862.99997804,-10.37586000
863.49997802,-10.26821000
863.99997801,-10.05352000
864.49997799,-9.75147500
864.99997798,-9.53678600
865.49997796,-9.42913300
865.99997795,-9.54170700
866.49997794,-9.87696700
866.99997792,-10.03629000
867.49997791,-10.00308000
867.99997789,-9.99507800
868.49997788,-9.99507800
868.99997787,-9.99507800
869.49997785,-9.99507800
869.99997784,-9.99507800
870.49997782,-9.99507800
870.99997781,-9.99507800
871.49997779,-9.99507800
871.99997778,-9.99261800
872.49997777,-9.98154500
872.99997775,-10.03076000
873.49997774,-10.12795000
873.99997772,-10.23807000
874.49997771,-10.35679000
874.99997770,-10.30450000
875.49997768,-10.08858000
875.99997767,-9.92925600
876.49997765,-9.84313500
876.99997764,-9.79084600
877.49997763,-9.77977300
877.99997761,-9.88681100
878.49997760,-10.10335000
878.99997758,-10.20731000
879.49997757,-10.18578000
879.99997755,-10.18824000
880.49997754,-10.22146000
880.99997753,-10.06705000
881.49997751,-9.75393700
881.99997750,-9.53986200
882.49997748,-9.44266700
882.99997747,-9.50602800
883.49997746,-9.74347900
883.99997744,-9.79576800
884.49997743,-9.65489600
884.99997741,-9.64689900
885.49997740,-9.75516700
885.99997738,-9.86220500
886.49997737,-9.95939900
886.99997736,-10.01415000
887.49997734,-10.02522000
887.99997733,-9.91510800
888.49997731,-9.68811500
888.99997730,-9.63336600
889.49997729,-9.75209100
889.99997727,-9.86220500
890.49997726,-9.95939900
890.99997724,-10.01415000
891.49997723,-10.02522000
891.99997722,-9.91818300
892.49997720,-9.70164800
892.99997719,-9.59215000
893.49997717,-9.59215000
893.99997716,-9.70164800
894.49997714,-9.91818300
894.99997713,-10.02522000
895.49997712,-10.01415000
895.99997710,-9.95632300
896.49997709,-9.84867000
896.99997707,-9.79638200
897.49997706,-9.80745600
897.99997705,-9.80991600
898.49997703,-9.80991600
898.99997702,-9.81237700
899.49997700,-9.82344900
899.99997699,-9.76870100
900.49997697,-9.64936000
900.99997696,-9.64689900
901.49997695,-9.75516700
901.99997693,-9.85912800
902.49997692,-9.94586600
