Time,Channel B
(ns),(mV)

-100.99999470,-9.62229300
-100.49999472,-9.76316400
-99.99999473,-9.82652600
-99.49999474,-9.82652600
-98.99999476,-9.76870100
-98.49999477,-9.64936000
-97.99999479,-9.64936000
-97.49999480,-9.76870100
-96.99999481,-9.82344900
-96.49999483,-9.81237700
-95.99999484,-9.80437900
-95.49999486,-9.78284900
-94.99999487,-9.89234600
-94.49999488,-10.13041000
-93.99999490,-10.13349000
-93.49999491,-9.90649500
-92.99999493,-9.73855800
-92.49999494,-9.63029000
-91.99999496,-9.68811500
-91.49999497,-9.91510800
-90.99999498,-10.02215000
-90.49999500,-10.00062000
-89.99999501,-9.99507800
-89.49999503,-9.99507800
-88.99999504,-9.99261800
-88.49999505,-9.98154500
-87.99999507,-10.03629000
-87.49999508,-10.15563000
-86.99999510,-10.15563000
-86.49999511,-10.03629000
-85.99999513,-9.98400600
-85.49999514,-10.00615000
-84.99999515,-9.95386200
-84.49999517,-9.83452200
-83.99999518,-9.83452200
-83.49999520,-9.95386200
-82.99999521,-10.00861000
-82.49999522,-9.99753900
-81.99999524,-9.99753900
-81.49999525,-10.00861000
-80.99999527,-9.95386200
-80.49999528,-9.83452200
-79.99999529,-9.83452200
-79.49999531,-9.95386200
-78.99999532,-10.01169000
-78.49999534,-10.01169000
-77.99999535,-9.95386200
-77.49999537,-9.83452200
-76.99999538,-9.83206100
-76.49999539,-9.94033000
-75.99999541,-10.04983000
-75.49999542,-10.15810000
-74.99999544,-10.15810000
-74.49999545,-10.04983000
-73.99999546,-9.94279000
-73.49999548,-9.84559500
-72.99999549,-9.79084600
-72.49999551,-9.77977300
-71.99999552,-9.88435100
-71.49999554,-10.08920000
-70.99999555,-10.25160000
-70.49999556,-10.35987000
-69.99999558,-10.30204000
-69.49999559,-10.07505000
-68.99999561,-9.96801100
-68.49999562,-9.98954200
-67.99999563,-9.99507800
-67.49999565,-9.99507800
-66.99999566,-9.99507800
-66.49999568,-9.99507800
-65.99999569,-10.00062000
-65.49999571,-10.02215000
-64.99999572,-9.91818300
-64.49999573,-9.70164800
-63.99999575,-9.59215000
-63.49999576,-9.59215000
-62.99999578,-9.70164800
-62.49999579,-9.91818300
-61.99999580,-10.02215000
-61.49999582,-10.00062000
-60.99999583,-9.99507800
-60.49999585,-9.99507800
-59.99999586,-9.99753900
-59.49999587,-10.00861000
-58.99999589,-9.95632300
-58.49999590,-9.84867000
-57.99999592,-9.79084600
-57.49999593,-9.77977300
-56.99999595,-9.88435100
-56.49999596,-10.08920000
-55.99999597,-10.25467000
-55.49999599,-10.37340000
-54.99999600,-10.26329000
-54.49999602,-9.92802600
-53.99999603,-9.76870100
-53.49999604,-9.80191900
-52.99999606,-9.80745600
-52.49999607,-9.79638200
-51.99999609,-9.85420700
-51.49999610,-9.98400600
-50.99999612,-9.93171700
-50.49999613,-9.70472400
-49.99999614,-9.59461100
-49.49999616,-9.60568300
-48.99999617,-9.66350800
-48.49999619,-9.77116100
-47.99999620,-9.82344900
-47.49999621,-9.81237700
-46.99999623,-9.81237700
-46.49999624,-9.82344900
-45.99999626,-9.76870100
-45.49999627,-9.64936000
-44.99999628,-9.64382400
-44.49999630,-9.74101800
-43.99999631,-9.90342000
-43.49999633,-10.11934000
-42.99999634,-10.16917000
-42.49999636,-10.03937000
-41.99999637,-9.98400600
-41.49999638,-10.00615000
-40.99999640,-9.95386200
-40.49999641,-9.83452200
-39.99999643,-9.83452200
-39.49999644,-9.95386200
-38.99999645,-10.01415000
-38.49999647,-10.02522000
-37.99999648,-9.91510800
-37.49999650,-9.68811500
-36.99999651,-9.63029000
-36.49999653,-9.73855800
-35.99999654,-9.90342000
-35.49999655,-10.11934000
-34.99999657,-10.17163000
-34.49999658,-10.05290000
-33.99999660,-9.94033000
-33.49999661,-9.83206100
-32.99999662,-9.83759800
-32.49999664,-9.96739700
-31.99999665,-9.96493600
-31.49999667,-9.82406500
-30.99999668,-9.87881400
-30.49999669,-10.12795000
-29.99999671,-10.13041000
-29.49999672,-9.89234600
-28.99999674,-9.77977300
-28.49999675,-9.79084600
-27.99999677,-9.85420700
-27.49999678,-9.98400600
-26.99999679,-9.92864100
-26.49999681,-9.69119100
-25.99999682,-9.63582600
-25.49999684,-9.76562400
-24.99999685,-9.82098900
-24.49999686,-9.79884200
-23.99999688,-9.84559500
-23.49999689,-9.94279000
-22.99999691,-10.05290000
-22.49999692,-10.17163000
-21.99999694,-10.11688000
-21.49999695,-9.88988600
-20.99999696,-9.77977300
-20.49999698,-9.79084600
-19.99999699,-9.84867000
-19.49999701,-9.95632300
-18.99999702,-10.00861000
-18.49999703,-9.99753900
-17.99999705,-9.99753900
-17.49999706,-10.00861000
-16.99999708,-9.95939900
-16.49999709,-9.86220500
-15.99999710,-9.75209100
-15.49999712,-9.63336600
-14.99999713,-9.69365100
-14.49999715,-9.94279000
-13.99999716,-9.94279000
-13.49999718,-9.69365100
-12.99999719,-9.63336600
-12.49999720,-9.75209100
-11.99999722,-9.86220500
-11.49999723,-9.95939900
-10.99999725,-10.00861000
-10.49999726,-9.99753900
-9.99999727,-10.00062000
-9.49999729,-10.02215000
-8.99999730,-9.91264700
-8.49999732,-9.67458200
-7.99999733,-9.67458200
-7.49999735,-9.91264700
-6.99999736,-10.02768000
-6.49999737,-10.02768000
-5.99999739,-9.91510800
-5.49999740,-9.68811500
-4.99999742,-9.63336600
-4.49999743,-9.75209100
-3.99999744,-9.86774200
-3.49999746,-9.98646600
-2.99999747,-9.93171700
-2.49999749,-9.70472400
-1.99999750,-9.59461100
-1.49999752,-9.60568300
-0.99999753,-9.66350800
-0.49999754,-9.77116100
0.00000244,-9.82098900
0.50000243,-9.79884200
1.00000241,-9.85420700
1.50000240,-9.98400600
2.00000239,-9.92618100
2.50000237,-9.67704200
3.00000236,-9.67150600
3.50000234,-9.89849900
4.00000233,-10.06398000
4.50000232,-10.16117000
5.00000230,-10.16117000
5.50000229,-10.06398000
6.00000227,-9.89849900
6.50000226,-9.67150600
7.00000224,-9.67150600
7.50000223,-9.89849900
8.00000222,-10.06398000
8.50000220,-10.16117000
9.00000219,-10.16117000
9.50000217,-10.06398000
10.00000216,-9.90157400
10.50000215,-9.68565500
11.00000213,-9.63336600
11.50000212,-9.75209100
12.00000210,-9.86774200
12.50000209,-9.98646600
13.00000207,-9.93171700
13.50000206,-9.70472400
14.00000205,-9.59461100
14.50000203,-9.60568300
15.00000202,-9.66596900
15.50000200,-9.78531000
16.00000199,-9.77977300
16.50000198,-9.63890200
17.00000196,-9.69119100
17.50000195,-9.92864100
18.00000193,-9.98400600
18.50000192,-9.85420700
19.00000191,-9.79638200
19.50000189,-9.80745600
20.00000188,-9.80745600
20.50000186,-9.79638200
21.00000185,-9.84867000
21.50000183,-9.95632300
22.00000182,-10.01169000
22.50000181,-10.01169000
23.00000179,-9.95386200
23.50000178,-9.83452200
24.00000176,-9.83206100
24.50000175,-9.94033000
25.00000174,-10.04983000
25.50000172,-10.15810000
26.00000171,-10.15810000
26.50000169,-10.04983000
27.00000168,-9.94033000
27.50000166,-9.83206100
28.00000165,-9.83452200
28.50000164,-9.95386200
29.00000162,-10.00861000
29.50000161,-9.99753900
30.00000159,-9.99507800
30.50000158,-9.99507800
31.00000157,-9.99753900
31.50000155,-10.00861000
32.00000154,-9.95386200
32.50000152,-9.83452200
33.00000151,-9.83759800
33.50000150,-9.96739700
34.00000148,-9.97047100
34.50000147,-9.85113100
35.00000145,-9.79330700
35.50000144,-9.79330700
36.00000142,-9.84559500
36.50000141,-9.94279000
37.00000140,-10.04983000
37.50000138,-10.15810000
38.00000137,-10.15563000
38.50000135,-10.03629000
39.00000134,-9.98154500
39.50000133,-9.99261800
40.00000131,-9.99507800
40.50000130,-9.99507800
41.00000128,-10.00062000
41.50000127,-10.02215000
42.00000125,-9.91510800
42.50000124,-9.68811500
43.00000123,-9.63029000
43.50000121,-9.73855800
44.00000120,-9.90342000
44.50000118,-10.11934000
45.00000117,-10.17470000
45.50000116,-10.06644000
46.00000114,-9.90403500
46.50000113,-9.69918700
47.00000111,-9.59768700
47.50000110,-9.61921700
48.00000108,-9.61921700
48.50000107,-9.59768700
49.00000106,-9.70472400
49.50000104,-9.93171700
50.00000103,-9.98646600
50.50000101,-9.86774200
51.00000100,-9.75209100
51.50000099,-9.63336600
52.00000097,-9.69119100
52.50000096,-9.92864100
53.00000094,-9.98646600
53.50000093,-9.86774200
54.00000092,-9.75209100
54.50000090,-9.63336600
55.00000089,-9.68565500
55.50000087,-9.90157400
56.00000086,-10.06398000
56.50000084,-10.16117000
57.00000083,-10.16117000
57.50000082,-10.06398000
58.00000080,-9.89849900
58.50000079,-9.67150600
59.00000077,-9.67150600
59.50000076,-9.89849900
60.00000075,-10.06398000
60.50000073,-10.16117000
61.00000072,-10.15563000
61.50000070,-10.03629000
62.00000069,-9.98400600
62.50000067,-10.00615000
63.00000066,-9.95632300
63.50000065,-9.84867000
64.00000063,-9.79330700
64.50000062,-9.79330700
65.00000060,-9.85113100
65.50000059,-9.97047100
66.00000058,-9.97047100
66.50000056,-9.85113100
67.00000055,-9.79084600
67.50000053,-9.77977300
68.00000052,-9.88988600
68.50000051,-10.11688000
69.00000049,-10.16609000
69.50000048,-10.02522000
70.00000046,-10.02522000
70.50000045,-10.16609000
71.00000043,-10.11380000
71.50000042,-9.87635300
72.00000041,-9.82098900
72.50000039,-9.95078800
73.00000038,-10.01415000
73.50000036,-10.02522000
74.00000035,-9.91818300
74.50000034,-9.70164800
75.00000032,-9.59215000
75.50000031,-9.59215000
76.00000029,-9.70472400
76.50000028,-9.93171700
77.00000026,-9.98092900
77.50000025,-9.84005800
78.00000024,-9.83452200
78.50000022,-9.95386200
79.00000021,-10.01415000
79.50000019,-10.02522000
80.00000018,-9.91264700
80.50000017,-9.67458200
81.00000015,-9.67704200
81.50000014,-9.92618100
82.00000012,-9.98092900
82.50000011,-9.84005800
83.00000010,-9.83452200
83.50000008,-9.95386200
84.00000007,-10.00861000
84.50000005,-9.99753900
85.00000004,-9.99507800
85.50000002,-9.99507800
86.00000001,-9.99507800
86.50000000,-9.99507800
86.99999998,-9.99507800
87.49999997,-9.99507800
87.99999995,-9.99753900
88.49999994,-10.00861000
88.99999993,-9.95632300
89.49999991,-9.84867000
89.99999990,-9.79638200
90.49999988,-9.80745600
90.99999987,-9.80991600
91.49999985,-9.80991600
91.99999984,-9.81237700
92.49999983,-9.82344900
92.99999981,-9.77116100
93.49999980,-9.66350800
93.99999978,-9.60814500
94.49999977,-9.60814500
94.99999976,-9.66596900
95.49999974,-9.78531000
95.99999973,-9.78223300
96.49999971,-9.65243500
96.99999970,-9.65243500
97.49999969,-9.78223300
97.99999967,-9.78223300
98.49999966,-9.65243500
98.99999964,-9.64382400
99.49999963,-9.74101800
99.99999961,-9.90096000
100.49999960,-10.10581000
100.99999959,-10.21038000
101.49999957,-10.19931000
101.99999956,-10.14149000
102.49999954,-10.03383000
102.99999953,-9.98154500
103.49999952,-9.99261800
103.99999950,-9.99507800
104.49999949,-9.99507800
104.99999947,-9.99507800
105.49999946,-9.99507800
105.99999944,-9.99261800
106.49999943,-9.98154500
106.99999942,-10.03383000
107.49999940,-10.14149000
107.99999939,-10.19685000
108.49999937,-10.19685000
108.99999936,-10.14149000
109.49999935,-10.03383000
109.99999933,-9.98400600
110.49999932,-10.00615000
110.99999930,-9.95939900
111.49999929,-9.86220500
111.99999927,-9.75516700
112.49999926,-9.64689900
112.99999925,-9.65243500
113.49999923,-9.78223300
113.99999922,-9.78223300
114.49999920,-9.65243500
114.99999919,-9.64382400
115.49999918,-9.74101800
115.99999916,-9.90342000
116.49999915,-10.11934000
116.99999913,-10.16917000
117.49999912,-10.03937000
117.99999911,-9.98154500
118.49999909,-9.99261800
118.99999908,-9.99507800
119.49999906,-9.99507800
119.99999905,-9.99507800
120.49999903,-9.99507800
120.99999902,-10.00062000
121.49999901,-10.02215000
121.99999899,-9.91264700
122.49999898,-9.67458200
122.99999896,-9.67150600
123.49999895,-9.89849900
123.99999894,-10.06951000
124.49999892,-10.18824000
124.99999891,-10.07812000
125.49999889,-9.74286400
125.99999888,-9.58353800
126.49999886,-9.61675600
126.99999885,-9.61921700
127.49999884,-9.59768700
127.99999882,-9.70164800
128.49999881,-9.91818300
128.99999879,-10.02522000
129.49999878,-10.01415000
129.99999877,-9.95386200
130.49999875,-9.83452200
130.99999874,-9.83452200
131.49999872,-9.95386200
131.99999871,-10.00861000
132.49999870,-9.99753900
132.99999868,-9.99507800
133.49999867,-9.99507800
133.99999865,-9.99753900
134.49999864,-10.00861000
134.99999862,-9.95386200
135.49999861,-9.83452200
135.99999860,-9.83452200
136.49999858,-9.95386200
136.99999857,-10.01415000
137.49999855,-10.02522000
137.99999854,-9.91510800
138.49999853,-9.68811500
138.99999851,-9.63336600
139.49999850,-9.75209100
139.99999848,-9.86466500
140.49999847,-9.97293300
140.99999845,-9.97293300
141.49999844,-9.86466500
141.99999843,-9.75516700
142.49999841,-9.64689900
142.99999840,-9.64936000
143.49999838,-9.76870100
143.99999837,-9.82098900
144.49999836,-9.79884200
144.99999834,-9.85113100
145.49999833,-9.97047100
145.99999831,-9.96739700
146.49999830,-9.83759800
146.99999829,-9.83206100
147.49999827,-9.94033000
147.99999826,-10.04983000
148.49999824,-10.15810000
148.99999823,-10.15810000
149.49999821,-10.04983000
149.99999820,-9.94279000
150.49999819,-9.84559500
150.99999817,-9.79884200
151.49999816,-9.82098900
151.99999814,-9.76870100
152.49999813,-9.64936000
152.99999812,-9.64936000
153.49999810,-9.76870100
153.99999809,-9.82098900
154.49999807,-9.79884200
154.99999806,-9.84559500
155.49999804,-9.94279000
155.99999803,-10.04983000
156.49999802,-10.15810000
156.99999800,-10.15256000
157.49999799,-10.02276000
157.99999797,-10.02522000
158.49999796,-10.16609000
158.99999795,-10.11380000
159.49999793,-9.87635300
159.99999792,-9.82098900
160.49999790,-9.95078800
160.99999789,-10.01415000
161.49999787,-10.02522000
161.99999786,-9.91510800
162.49999785,-9.68811500
162.99999783,-9.63029000
163.49999782,-9.73855800
163.99999780,-9.90342000
164.49999779,-10.11934000
164.99999778,-10.17163000
165.49999776,-10.05290000
165.99999775,-9.94033000
166.49999773,-9.83206100
166.99999772,-9.83452200
167.49999771,-9.95386200
167.99999769,-10.00308000
168.49999768,-9.97047100
168.99999766,-10.07751000
169.49999765,-10.31557000
169.99999763,-10.31865000
170.49999762,-10.09166000
170.99999761,-9.92618100
171.49999759,-9.82898600
171.99999758,-9.83759800
172.49999756,-9.96739700
172.99999755,-9.96739700
173.49999754,-9.83759800
173.99999752,-9.83759800
174.49999751,-9.96739700
174.99999749,-9.97293300
175.49999748,-9.86466500
175.99999746,-9.75209100
176.49999745,-9.63336600
176.99999744,-9.68811500
177.49999742,-9.91510800
177.99999741,-10.02215000
178.49999739,-10.00062000
178.99999738,-9.99507800
179.49999737,-9.99507800
179.99999735,-9.99507800
180.49999734,-9.99507800
180.99999732,-9.99507800
181.49999731,-9.99507800
181.99999730,-9.99507800
182.49999728,-9.99507800
182.99999727,-9.99507800
183.49999725,-9.99507800
183.99999724,-9.99507800
184.49999722,-9.99507800
184.99999721,-10.00062000
185.49999720,-10.02215000
185.99999718,-9.91510800
186.49999717,-9.68811500
186.99999715,-9.63029000
187.49999714,-9.73855800
187.99999713,-9.90342000
188.49999711,-10.11934000
188.99999710,-10.17163000
189.49999708,-10.05290000
189.99999707,-9.94279000
190.49999705,-9.84559500
190.99999704,-9.79330700
191.49999703,-9.79330700
191.99999701,-9.84313500
192.49999700,-9.92925600
192.99999698,-10.09412000
193.49999697,-10.33218000
193.99999696,-10.27682000
194.49999694,-9.93110200
194.99999693,-9.76624000
195.49999691,-9.78777000
195.99999690,-9.85113100
196.49999689,-9.97047100
196.99999687,-9.97047100
197.49999686,-9.85113100
197.99999684,-9.79638200
198.49999683,-9.80745600
198.99999681,-9.80745600
199.49999680,-9.79638200
199.99999679,-9.84867000
200.49999677,-9.95632300
200.99999676,-10.01415000
201.49999674,-10.02522000
201.99999673,-9.91510800
202.49999672,-9.68811500
202.99999670,-9.63336600
203.49999669,-9.75209100
203.99999667,-9.86466500
204.49999666,-9.97293300
204.99999664,-9.97293300
205.49999663,-9.86466500
205.99999662,-9.75516700
206.49999660,-9.64689900
206.99999659,-9.64382400
207.49999657,-9.74101800
207.99999656,-9.90096000
208.49999655,-10.10581000
208.99999653,-10.21592000
209.49999652,-10.22699000
209.99999650,-10.06459000
210.49999649,-9.74040300
210.99999648,-9.57800100
211.49999646,-9.58907400
211.99999645,-9.70472400
212.49999643,-9.93171700
212.99999642,-9.98400600
213.49999640,-9.85420700
213.99999639,-9.79330700
214.49999638,-9.79330700
214.99999636,-9.85113100
215.49999635,-9.97047100
215.99999633,-9.96739700
216.49999632,-9.83759800
216.99999631,-9.83759800
217.49999629,-9.96739700
217.99999628,-9.97047100
218.49999626,-9.85113100
218.99999625,-9.79330700
219.49999623,-9.79330700
219.99999622,-9.85113100
220.49999621,-9.97047100
220.99999619,-9.97047100
221.49999618,-9.85113100
221.99999616,-9.79638200
222.49999615,-9.80745600
222.99999614,-9.81237700
223.49999612,-9.82344900
223.99999611,-9.76870100
224.49999609,-9.64936000
224.99999608,-9.64936000
225.49999606,-9.76870100
225.99999605,-9.82098900
226.49999604,-9.79884200
226.99999602,-9.84867000
227.49999601,-9.95632300
227.99999599,-10.00861000
228.49999598,-9.99753900
228.99999597,-9.99507800
229.49999595,-9.99507800
229.99999594,-9.99753900
230.49999592,-10.00861000
230.99999591,-9.95386200
231.49999590,-9.83452200
231.99999588,-9.83452200
232.49999587,-9.95386200
232.99999585,-10.01415000
233.49999584,-10.02522000
233.99999582,-9.91510800
234.49999581,-9.68811500
234.99999580,-9.63029000
235.49999578,-9.73855800
235.99999577,-9.90649500
236.49999575,-10.13349000
236.99999574,-10.13595000
237.49999573,-9.92003000
237.99999571,-9.69980200
238.49999570,-9.48388300
238.99999568,-9.48941900
239.49999567,-9.72748500
239.99999565,-9.83452200
240.49999564,-9.80191900
240.99999563,-9.85420700
241.49999561,-9.98400600
241.99999560,-9.92864100
242.49999558,-9.69119100
242.99999557,-9.63336600
243.49999556,-9.75209100
243.99999554,-9.86220500
244.49999553,-9.95939900
244.99999551,-10.00615000
245.49999550,-9.98400600
245.99999549,-10.03383000
246.49999547,-10.14149000
246.99999546,-10.19377000
247.49999544,-10.18270000
247.99999543,-10.18270000
248.49999541,-10.19377000
248.99999540,-10.14456000
249.49999539,-10.04737000
249.99999537,-9.94279000
250.49999536,-9.84559500
250.99999534,-9.79330700
251.49999533,-9.79330700
251.99999532,-9.85113100
252.49999530,-9.97047100
252.99999529,-9.97293300
253.49999527,-9.86466500
253.99999526,-9.75516700
254.49999524,-9.64689900
254.99999523,-9.65243500
255.49999522,-9.78223300
255.99999520,-9.77977300
256.49999519,-9.63890200
256.99999517,-9.69365100
257.49999516,-9.94279000
257.99999515,-9.93971300
258.49999513,-9.68011800
258.99999512,-9.67458200
259.49999510,-9.91264700
259.99999509,-10.02522000
260.49999508,-10.01415000
260.99999506,-9.95386200
261.49999505,-9.83452200
261.99999503,-9.83452200
262.49999502,-9.95386200
262.99999500,-10.00615000
263.49999499,-9.98400600
263.99999498,-10.03629000
264.49999496,-10.15563000
264.99999495,-10.16363000
265.49999493,-10.07751000
265.99999492,-9.86589500
266.49999491,-9.55278000
266.99999489,-9.39037900
267.49999488,-9.39037900
267.99999486,-9.55770100
268.49999485,-9.89296200
268.99999483,-9.99446300
269.49999482,-9.84313500
269.99999481,-9.84005800
270.49999479,-9.98092900
270.99999478,-9.92864100
271.49999476,-9.69119100
271.99999475,-9.63336600
272.49999474,-9.75209100
272.99999472,-9.86774200
273.49999471,-9.98646600
273.99999469,-9.93171700
274.49999468,-9.70472400
274.99999466,-9.59461100
275.49999465,-9.60568300
275.99999464,-9.66043300
276.49999462,-9.75762700
276.99999461,-9.86220500
277.49999459,-9.95939900
277.99999458,-10.01169000
278.49999457,-10.01169000
278.99999455,-9.95632300
279.49999454,-9.84867000
279.99999452,-9.79638200
280.49999451,-9.80745600
280.99999450,-9.80991600
281.49999448,-9.80991600
281.99999447,-9.80745600
282.49999445,-9.79638200
282.99999444,-9.84559500
283.49999442,-9.94279000
283.99999441,-10.05290000
284.49999440,-10.17163000
284.99999438,-10.11934000
285.49999437,-9.90342000
285.99999435,-9.74101800
286.49999434,-9.64382400
286.99999433,-9.65243500
287.49999431,-9.78223300
287.99999430,-9.77977300
288.49999428,-9.63890200
288.99999427,-9.68811500
289.49999425,-9.91510800
289.99999424,-10.02215000
290.49999423,-10.00062000
290.99999421,-9.99507800
291.49999420,-9.99507800
291.99999418,-9.99507800
292.49999417,-9.99507800
292.99999416,-9.99753900
293.49999414,-10.00861000
293.99999413,-9.95939900
294.49999411,-9.86220500
294.99999410,-9.75209100
295.49999409,-9.63336600
295.99999407,-9.68811500
296.49999406,-9.91510800
296.99999404,-10.02768000
297.49999403,-10.02768000
297.99999401,-9.91510800
298.49999400,-9.68811500
298.99999399,-9.63582600
299.49999397,-9.76562400
299.99999396,-9.82344900
300.49999394,-9.81237700
300.99999393,-9.80991600
301.49999392,-9.80991600
301.99999390,-9.80745600
302.49999389,-9.79638200
302.99999387,-9.85113100
303.49999386,-9.97047100
303.99999384,-9.97047100
304.49999383,-9.85113100
304.99999382,-9.79884200
305.49999380,-9.82098900
305.99999379,-9.76870100
306.49999377,-9.64936000
306.99999376,-9.64689900
307.49999375,-9.75516700
307.99999373,-9.86220500
308.49999372,-9.95939900
308.99999370,-10.01415000
309.49999369,-10.02522000
309.99999368,-9.91818300
310.49999366,-9.70164800
310.99999365,-9.58907400
311.49999363,-9.57800100
311.99999362,-9.74286400
312.49999360,-10.07812000
312.99999359,-10.18824000
313.49999358,-10.06951000
313.99999356,-9.90157400
314.49999355,-9.68565500
314.99999353,-9.63029000
315.49999352,-9.73855800
315.99999351,-9.90096000
316.49999349,-10.10581000
316.99999348,-10.21284000
317.49999346,-10.21284000
317.99999345,-10.10335000
318.49999343,-9.88681100
318.99999342,-9.78284900
319.49999341,-9.80437900
319.99999339,-9.80745600
320.49999338,-9.79638200
320.99999336,-9.85420700
321.49999335,-9.98400600
321.99999334,-9.92618100
322.49999332,-9.67704200
322.99999331,-9.67458200
323.49999329,-9.91264700
323.99999328,-10.02215000
324.49999327,-10.00062000
324.99999325,-9.99753900
325.49999324,-10.00861000
325.99999322,-9.95386200
326.49999321,-9.83452200
326.99999319,-9.83452200
327.49999318,-9.95386200
327.99999317,-10.00861000
328.49999315,-9.99753900
328.99999314,-10.00062000
329.49999312,-10.02215000
329.99999311,-9.91510800
330.49999310,-9.68811500
330.99999308,-9.63336600
331.49999307,-9.75209100
331.99999305,-9.86220500
332.49999304,-9.95939900
332.99999302,-10.01169000
333.49999301,-10.01169000
333.99999300,-9.95632300
334.49999298,-9.84867000
334.99999297,-9.79638200
335.49999295,-9.80745600
335.99999294,-9.80745600
336.49999293,-9.79638200
336.99999291,-9.85420700
337.49999290,-9.98400600
337.99999288,-9.92864100
338.49999287,-9.69119100
338.99999285,-9.63336600
339.49999284,-9.75209100
339.99999283,-9.85912800
340.49999281,-9.94586600
340.99999280,-10.04983000
341.49999278,-10.15810000
341.99999277,-10.15810000
342.49999276,-10.04983000
342.99999274,-9.94033000
343.49999273,-9.83206100
343.99999271,-9.83206100
344.49999270,-9.94033000
344.99999269,-10.04983000
345.49999267,-10.15810000
345.99999266,-10.15563000
346.49999264,-10.03629000
346.99999263,-9.98154500
347.49999261,-9.99261800
347.99999260,-9.99507800
348.49999259,-9.99507800
348.99999257,-9.99507800
349.49999256,-9.99507800
349.99999254,-9.99753900
350.49999253,-10.00861000
350.99999252,-9.95386200
351.49999250,-9.83452200
351.99999249,-9.83452200
352.49999247,-9.95386200
352.99999246,-10.01169000
353.49999244,-10.01169000
353.99999243,-9.95939900
354.49999242,-9.86220500
354.99999240,-9.75516700
355.49999239,-9.64689900
355.99999237,-9.64936000
356.49999236,-9.76870100
356.99999235,-9.82652600
357.49999233,-9.82652600
357.99999232,-9.76870100
358.49999230,-9.64936000
358.99999229,-9.64936000
359.49999228,-9.76870100
359.99999226,-9.82098900
360.49999225,-9.79884200
360.99999223,-9.85113100
361.49999222,-9.97047100
361.99999220,-9.97047100
362.49999219,-9.85113100
362.99999218,-9.79084600
363.49999216,-9.77977300
363.99999215,-9.88988600
364.49999213,-10.11688000
364.99999212,-10.17470000
365.49999211,-10.06644000
365.99999209,-9.90403500
366.49999208,-9.69918700
366.99999206,-9.59461100
367.49999205,-9.60568300
367.99999203,-9.65797200
368.49999202,-9.74409400
368.99999201,-9.90895600
369.49999199,-10.14702000
369.99999198,-10.08920000
370.49999196,-9.73240600
370.99999195,-9.61983200
371.49999194,-9.74963100
371.99999192,-9.86220500
372.49999191,-9.95939900
372.99999189,-10.01169000
373.49999188,-10.01169000
373.99999187,-9.95632300
374.49999185,-9.84867000
374.99999184,-9.79330700
375.49999182,-9.79330700
375.99999181,-9.84559500
376.49999179,-9.94279000
376.99999178,-10.05290000
377.49999177,-10.17163000
377.99999175,-10.11688000
378.49999174,-9.88988600
378.99999172,-9.78284900
379.49999171,-9.80437900
379.99999170,-9.80991600
380.49999168,-9.80991600
380.99999167,-9.80745600
381.49999165,-9.79638200
381.99999164,-9.85113100
382.49999162,-9.97047100
382.99999161,-9.97293300
383.49999160,-9.86466500
383.99999158,-9.75209100
384.49999157,-9.63336600
384.99999155,-9.69365100
385.49999154,-9.94279000
385.99999153,-9.94279000
386.49999151,-9.69365100
386.99999150,-9.63890200
387.49999148,-9.77977300
387.99999147,-9.78223300
388.49999145,-9.65243500
388.99999144,-9.64689900
389.49999143,-9.75516700
389.99999141,-9.86220500
390.49999140,-9.95939900
390.99999138,-10.00861000
391.49999137,-9.99753900
391.99999136,-9.99507800
392.49999134,-9.99507800
392.99999133,-10.00062000
393.49999131,-10.02215000
393.99999130,-9.91510800
394.49999129,-9.68811500
394.99999127,-9.63336600
395.49999126,-9.75209100
395.99999124,-9.86774200
396.49999123,-9.98646600
396.99999121,-9.93171700
397.49999120,-9.70472400
397.99999119,-9.59461100
398.49999117,-9.60568300
398.99999116,-9.66043300
399.49999114,-9.75762700
399.99999113,-9.86220500
400.49999112,-9.95939900
400.99999110,-10.00861000
401.49999109,-9.99753900
401.99999107,-9.99753900
402.49999106,-10.00861000
402.99999104,-9.95632300
403.49999103,-9.84867000
403.99999102,-9.79638200
404.49999100,-9.80745600
404.99999099,-9.80991600
405.49999097,-9.80991600
405.99999096,-9.80745600
406.49999095,-9.79638200
406.99999093,-9.84867000
407.49999092,-9.95632300
407.99999090,-10.00861000
408.49999089,-9.99753900
408.99999088,-9.99507800
409.49999086,-9.99507800
409.99999085,-9.99753900
410.49999083,-10.00861000
410.99999082,-9.95078800
411.49999080,-9.82098900
411.99999079,-9.87635300
412.49999078,-10.11380000
412.99999076,-10.17163000
413.49999075,-10.05290000
413.99999073,-9.94832700
414.49999072,-9.87327700
414.99999071,-9.71333600
415.49999069,-9.48634300
415.99999068,-9.48634300
416.49999066,-9.71333600
416.99999065,-9.87573700
417.49999063,-9.96186000
417.99999062,-10.01415000
418.49999061,-10.02522000
418.99999059,-9.91264700
419.49999058,-9.67458200
419.99999056,-9.67458200
420.49999055,-9.91264700
420.99999054,-10.02522000
421.49999052,-10.01415000
421.99999051,-9.95632300
422.49999049,-9.84867000
422.99999048,-9.79330700
423.49999047,-9.79330700
423.99999045,-9.84867000
424.49999044,-9.95632300
424.99999042,-10.01169000
425.49999041,-10.01169000
425.99999039,-9.95632300
426.49999038,-9.84867000
426.99999037,-9.79084600
427.49999035,-9.77977300
427.99999034,-9.89234600
428.49999032,-10.13041000
428.99999031,-10.13349000
429.49999030,-9.90649500
429.99999028,-9.74101800
430.49999027,-9.64382400
430.99999025,-9.64689900
431.49999024,-9.75516700
431.99999022,-9.86220500
432.49999021,-9.95939900
432.99999020,-10.01169000
433.49999018,-10.01169000
433.99999017,-9.95632300
434.49999015,-9.84867000
434.99999014,-9.79330700
435.49999013,-9.79330700
435.99999011,-9.84867000
436.49999010,-9.95632300
436.99999008,-10.01169000
437.49999007,-10.01169000
437.99999006,-9.95386200
438.49999004,-9.83452200
438.99999003,-9.83452200
439.49999001,-9.95386200
439.99999000,-10.00861000
440.49998998,-9.99753900
440.99998997,-9.99507800
441.49998996,-9.99507800
441.99998994,-9.99507800
442.49998993,-9.99507800
442.99998991,-9.99507800
443.49998990,-9.99507800
443.99998989,-9.99753900
444.49998987,-10.00861000
444.99998986,-9.95939900
445.49998984,-9.86220500
445.99998983,-9.75516700
446.49998981,-9.64689900
446.99998980,-9.64689900
447.49998979,-9.75516700
447.99998977,-9.85666800
448.49998976,-9.93171700
448.99998974,-10.09658000
449.49998973,-10.34572000
449.99998972,-10.23561000
450.49998970,-9.77054600
450.99998969,-9.60322300
451.49998967,-9.73302200
451.99998966,-9.90342000
452.49998964,-10.11934000
452.99998963,-10.16917000
453.49998962,-10.03937000
453.99998960,-9.98154500
454.49998959,-9.99261800
454.99998957,-9.99507800
455.49998956,-9.99507800
455.99998955,-9.99507800
456.49998953,-9.99507800
456.99998952,-10.00062000
457.49998950,-10.02215000
457.99998949,-9.91510800
458.49998948,-9.68811500
458.99998946,-9.63336600
459.49998945,-9.75209100
459.99998943,-9.86774200
460.49998942,-9.98646600
460.99998940,-9.92864100
461.49998939,-9.69119100
461.99998938,-9.63890200
462.49998936,-9.77977300
462.99998935,-9.77977300
463.49998933,-9.63890200
463.99998932,-9.68811500
464.49998931,-9.91510800
464.99998929,-10.02522000
465.49998928,-10.01415000
465.99998926,-9.95939900
466.49998925,-9.86220500
466.99998923,-9.75209100
467.49998922,-9.63336600
467.99998921,-9.69119100
468.49998919,-9.92864100
468.99998918,-9.98400600
469.49998916,-9.85420700
469.99998915,-9.79330700
470.49998914,-9.79330700
470.99998912,-9.84559500
471.49998911,-9.94279000
471.99998909,-10.04737000
472.49998908,-10.14456000
472.99998907,-10.19931000
473.49998905,-10.21038000
473.99998904,-10.10027000
474.49998902,-9.87327700
474.99998901,-9.82098900
475.49998899,-9.95078800
475.99998898,-10.01169000
476.49998897,-10.01169000
476.99998895,-9.95632300
477.49998894,-9.84867000
477.99998892,-9.79330700
478.49998891,-9.79330700
478.99998890,-9.84559500
479.49998888,-9.94279000
479.99998887,-10.04429000
480.49998885,-10.13103000
480.99998884,-10.24053000
481.49998882,-10.37033000
481.99998881,-10.26636000
482.49998880,-9.94217400
482.99998878,-9.72748500
483.49998877,-9.64136300
483.99998875,-9.65243500
484.49998874,-9.78223300
484.99998873,-9.78223300
485.49998871,-9.65243500
485.99998870,-9.64689900
486.49998868,-9.75516700
486.99998867,-9.85912800
487.49998866,-9.94586600
487.99998864,-10.04737000
488.49998863,-10.14456000
488.99998861,-10.19685000
489.49998860,-10.19685000
489.99998858,-10.14456000
490.49998857,-10.04737000
490.99998856,-9.94033000
491.49998854,-9.83206100
491.99998853,-9.83452200
492.49998851,-9.95386200
492.99998850,-10.00861000
493.49998849,-9.99753900
493.99998847,-9.99507800
494.49998846,-9.99507800
494.99998844,-10.00062000
495.49998843,-10.02215000
495.99998841,-9.91264700
496.49998840,-9.67458200
496.99998839,-9.68011800
497.49998837,-9.93971300
497.99998836,-9.94279000
498.49998834,-9.69365100
498.99998833,-9.63336600
499.49998832,-9.75209100
499.99998830,-9.86466500
500.49998829,-9.97293300
500.99998827,-9.96493600
501.49998826,-9.82406500
501.99998824,-9.87635300
502.49998823,-10.11380000
502.99998822,-10.16609000
503.49998820,-10.02522000
503.99998819,-10.02276000
504.49998817,-10.15256000
504.99998816,-10.16117000
505.49998815,-10.06398000
505.99998813,-9.89849900
506.49998812,-9.67150600
506.99998810,-9.67150600
507.49998809,-9.89849900
507.99998808,-10.06090000
508.49998806,-10.14702000
508.99998805,-10.19685000
509.49998803,-10.19685000
509.99998802,-10.14456000
510.49998800,-10.04737000
510.99998799,-9.94586600
511.49998798,-9.85912800
511.99998796,-9.74963100
512.49998795,-9.61983200
512.99998793,-9.73240600
513.49998792,-10.08920000
513.99998791,-10.14702000
514.49998789,-9.90895600
514.99998788,-9.74101800
515.49998786,-9.64382400
515.99998785,-9.64936000
516.49998783,-9.76870100
516.99998782,-9.82652600
517.49998781,-9.82652600
517.99998779,-9.76316400
518.49998778,-9.62229300
518.99998776,-9.72687000
519.49998775,-10.06213000
519.99998774,-10.22392000
520.49998772,-10.20239000
520.99998771,-10.14149000
521.49998769,-10.03383000
521.99998768,-9.97846900
522.49998767,-9.97846900
522.99998765,-10.03629000
523.49998764,-10.15563000
523.99998762,-10.16117000
524.49998761,-10.06398000
524.99998759,-9.90157400
525.49998758,-9.68565500
525.99998757,-9.63582600
526.49998755,-9.76562400
526.99998754,-9.82344900
527.49998752,-9.81237700
527.99998751,-9.80745600
528.49998750,-9.79638200
528.99998748,-9.85420700
529.49998747,-9.98400600
529.99998745,-9.92864100
530.49998744,-9.69119100
530.99998742,-9.63336600
531.49998741,-9.75209100
531.99998740,-9.86220500
532.49998738,-9.95939900
532.99998737,-10.00861000
533.49998735,-9.99753900
533.99998734,-9.99753900
534.49998733,-10.00861000
534.99998731,-9.95386200
535.49998730,-9.83452200
535.99998728,-9.83452200
536.49998727,-9.95386200
536.99998726,-10.01169000
537.49998724,-10.01169000
537.99998723,-9.95632300
538.49998721,-9.84867000
538.99998720,-9.79330700
539.49998718,-9.79330700
539.99998717,-9.85666800
540.49998716,-9.99753900
540.99998714,-9.89603700
541.49998713,-9.57185000
541.99998711,-9.35716100
542.49998710,-9.27103800
542.99998709,-9.27657400
543.49998707,-9.38484200
543.99998706,-9.48634300
544.49998704,-9.56139200
544.99998703,-9.71579600
545.49998701,-9.92064400
545.99998700,-10.02215000
546.49998699,-10.00062000
546.99998697,-9.99261800
547.49998696,-9.98154500
547.99998694,-10.03383000
548.49998693,-10.14149000
548.99998692,-10.19685000
549.49998690,-10.19685000
549.99998689,-10.14702000
550.49998687,-10.06090000
550.99998686,-9.89603700
551.49998685,-9.65797200
551.99998683,-9.70780000
552.49998682,-10.03199000
552.99998680,-10.30635000
553.49998679,-10.52288000
553.99998677,-10.46198000
554.49998676,-10.11626000
554.99998675,-9.95140200
555.49998673,-9.97293300
555.99998672,-10.03629000
556.49998670,-10.15563000
556.99998669,-10.16609000
557.49998668,-10.09104000
557.99998666,-9.81914300
558.49998665,-9.36515700
558.99998663,-9.30733300
559.49998662,-9.64197800
559.99998660,-9.98031500
560.49998659,-10.32603000
560.99998658,-10.24668000
561.49998656,-9.80437900
561.99998655,-8.92285800
562.49998653,-7.73560500
562.99998652,-6.86208100
563.49998651,-6.45300100
563.99998649,-6.23831200
564.49998648,-6.34719400
564.99998646,-6.11158900
565.49998645,-5.61515700
565.99998643,-5.14271600
566.49998642,-4.75393700
566.99998641,-4.61675600
567.49998639,-4.79023100
567.99998638,-4.76254900
568.49998636,-4.59030500
568.99998635,-4.23843500
569.49998634,-3.78567900
569.99998632,-3.21173700
570.49998631,-2.59596400
570.99998629,-2.40095900
571.49998628,-2.68270200
571.99998627,-2.78666300
572.49998625,-2.69992600
572.99998624,-2.99643200
573.49998622,-3.60051700
573.99998621,-4.12524600
574.49998619,-4.50295300
574.99998618,-4.66289300
575.49998617,-4.58722900
575.99998615,-4.15292800
576.49998614,-3.38644200
576.99998612,-3.10900600
577.49998611,-3.32492600
577.99998610,-3.80536400
578.49998608,-4.50725900
578.99998607,-5.03444900
579.49998605,-5.32603300
579.99998604,-5.24913900
580.49998602,-4.76254900
580.99998601,-4.64136300
581.49998600,-4.86835600
581.99998598,-5.14025600
582.49998597,-5.44229800
582.99998595,-5.59055100
583.49998594,-5.54687500
583.99998593,-5.59116600
584.49998591,-5.69881900
584.99998590,-5.76218000
585.49998588,-5.79478300
585.99998587,-5.60285400
586.49998586,-5.24729300
586.99998584,-4.66781500
587.49998583,-3.93270200
587.99998581,-3.64726900
588.49998580,-3.79798200
588.99998578,-4.57492600
589.49998577,-5.85999000
589.99998576,-7.01094900
590.49998574,-7.87401500
590.99998573,-8.17359700
591.49998571,-7.83833600
591.99998570,-7.26131900
592.49998569,-6.51697800
592.99998567,-5.69574300
593.49998566,-4.94094400
593.99998564,-4.40760300
594.49998563,-4.14800600
594.99998561,-4.65920300
595.49998560,-5.84645600
595.99998559,-7.10445300
596.49998557,-8.27017700
596.99998556,-8.89394700
597.49998554,-8.88287400
597.99998553,-8.29785900
598.49998552,-7.19672700
598.99998550,-6.19402000
599.49998549,-5.40600300
599.99998547,-5.20853800
600.49998546,-5.65083600
600.99998545,-6.24446300
601.49998543,-6.94635800
601.99998542,-7.34990100
602.49998540,-7.37081700
602.99998539,-7.45816900
603.49998537,-7.56643700
603.99998536,-7.56397600
604.49998535,-7.44463500
604.99998533,-7.37020200
605.49998532,-7.30499500
605.99998530,-7.65378900
606.49998529,-8.33415300
606.99998528,-9.06742100
607.49998526,-9.75824300
607.99998525,-10.08551000
608.49998523,-10.03137000
608.99998522,-9.35839100
609.49998520,-8.17113600
609.99998519,-7.03678600
610.49998518,-6.03161900
610.99998516,-6.33366200
611.49998515,-7.87832200
611.99998513,-9.52632800
612.49998512,-11.11282000
612.99998511,-11.83563000
613.49998509,-11.57542000
613.99998508,-10.83661000
614.49998506,-9.70410800
614.99998505,-8.39936100
615.49998503,-7.10383800
615.99998502,-6.53543300
616.49998501,-6.78395600
616.99998499,-7.41633800
617.49998498,-8.35445400
617.99998496,-9.43959000
618.49998495,-10.49705000
618.99998494,-11.18418000
619.49998492,-11.42163000
619.99998491,-10.84707000
620.49998489,-9.54109200
620.99998488,-8.26402500
621.49998487,-7.14136300
621.99998485,-6.93528500
622.49998484,-7.68024100
622.99998482,-8.69402000
623.49998481,-9.88127400
623.99998479,-10.65883000
624.49998478,-10.90674000
624.99998477,-10.79663000
625.49998475,-10.33280000
625.99998474,-9.55216500
626.49998472,-8.57037400
626.99998471,-7.83956700
627.49998470,-7.46186000
627.99998468,-7.51414900
628.49998467,-7.98904900
628.99998465,-8.78014300
629.49998464,-9.79515200
629.99998462,-10.37463000
630.49998461,-10.45029000
630.99998460,-10.12857000
631.49998458,-9.43774600
631.99998457,-8.69894100
632.49998455,-7.99704600
632.99998454,-7.73622000
633.49998453,-7.95214000
633.99998451,-8.42458200
634.49998450,-9.09325700
634.99998448,-9.76624000
635.49998447,-10.33834000
635.99998446,-10.64653000
636.49998444,-10.63546000
636.99998443,-10.36909000
637.49998441,-9.87204600
637.99998440,-9.39160900
638.49998438,-8.97022500
638.99998437,-8.96469000
639.49998436,-9.36392600
639.99998434,-9.93786900
640.49998433,-10.60777000
640.99998431,-11.18418000
641.49998430,-11.59449000
641.99998429,-11.53666000
642.49998427,-11.00763000
642.99998426,-10.48290000
643.49998424,-10.03014000
643.99998423,-9.62044700
644.49998421,-9.32886300
644.99998420,-9.27965000
645.49998419,-9.48449700
645.99998417,-9.80068900
646.49998416,-10.18947000
646.99998414,-10.50812000
647.49998413,-10.72404000
647.99998412,-10.61147000
648.49998410,-10.16855000
648.99998409,-9.91018600
649.49998407,-9.87819800
649.99998406,-9.68073300
650.49998405,-9.36761900
650.99998403,-9.19967900
651.49998402,-9.17814900
651.99998400,-9.44697400
652.49998399,-9.98769700
652.99998397,-10.25652000
653.49998396,-10.23499000
653.99998395,-10.06705000
654.49998393,-9.75393700
654.99998392,-9.54785900
655.49998390,-9.48326700
655.99998389,-9.37377000
656.49998388,-9.22182600
656.99998386,-9.43651600
657.49998385,-9.99815500
657.99998383,-10.21284000
658.49998382,-10.06090000
658.99998380,-9.94832700
659.49998379,-9.87327700
659.99998378,-9.72994500
660.49998376,-9.56877400
660.99998375,-9.26365700
661.49998373,-8.87549100
661.99998372,-8.55930100
662.49998371,-8.35445400
662.99998369,-8.40120500
663.49998368,-8.68171700
663.99998366,-9.14308500
664.49998365,-9.70410800
664.99998364,-10.27251000
665.49998362,-10.75849000
665.99998361,-10.96149000
666.49998359,-10.84276000
666.99998358,-10.57087000
667.49998356,-10.15994000
667.99998355,-9.90465100
668.49998354,-9.85113100
668.99998352,-9.74963100
669.49998351,-9.61983200
669.99998349,-9.71825700
670.49998348,-10.02092000
670.99998347,-10.33157000
671.49998345,-10.60101000
671.99998344,-10.85630000
672.49998342,-11.05007000
672.99998341,-11.10790000
673.49998339,-11.03285000
673.99998338,-10.71174000
674.49998337,-10.17163000
674.99998335,-9.96001400
675.49998334,-10.10027000
675.99998332,-10.27128000
676.49998331,-10.47613000
676.99998330,-10.58071000
677.49998328,-10.56964000
677.99998327,-10.51181000
678.49998325,-10.40416000
678.99998324,-10.34879000
679.49998322,-10.34879000
679.99998321,-10.40108000
680.49998320,-10.49828000
680.99998318,-10.60531000
681.49998317,-10.71358000
681.99998315,-10.71358000
682.49998314,-10.60531000
682.99998313,-10.50689000
683.49998311,-10.44230000
683.99998310,-10.24729000
684.49998308,-9.97723900
684.99998307,-9.61183500
685.49998306,-9.20214100
685.99998304,-9.05081200
686.49998303,-9.19106800
686.99998301,-9.30364100
687.49998300,-9.39037900
687.99998298,-9.49434000
688.49998297,-9.60260800
688.99998296,-9.60260800
689.49998294,-9.49434000
689.99998293,-9.39037900
690.49998291,-9.30364100
690.99998290,-9.19414300
691.49998289,-9.06434500
691.99998287,-9.16646100
692.49998286,-9.47896200
692.99998284,-9.73978800
693.49998283,-9.91264700
693.99998281,-10.06398000
694.49998280,-10.16117000
694.99998279,-10.15563000
695.49998277,-10.03629000
695.99998276,-9.97600800
696.49998274,-9.96493600
696.99998273,-10.07197000
697.49998272,-10.28851000
697.99998270,-10.38693000
698.49998269,-10.34387000
698.99998267,-10.44230000
699.49998266,-10.65883000
699.99998265,-10.77141000
700.49998263,-10.78248000
700.99998262,-10.62008000
701.49998260,-10.29589000
701.99998259,-10.14210000
702.49998257,-10.18578000
702.99998256,-10.13349000
703.49998255,-9.99261800
703.99998253,-10.09719000
704.49998252,-10.43246000
704.99998250,-10.59978000
705.49998249,-10.59978000
705.99998248,-10.43246000
706.49998246,-10.09719000
706.99998245,-9.99261800
707.49998243,-10.13349000
707.99998242,-10.19131000
708.49998240,-10.16917000
708.99998239,-10.21592000
709.49998238,-10.31311000
709.99998236,-10.42015000
710.49998235,-10.52842000
710.99998233,-10.52288000
711.49998232,-10.39309000
711.99998231,-10.39555000
712.49998229,-10.53642000
712.99998228,-10.49274000
713.49998226,-10.28728000
713.99998225,-10.07320000
714.49998224,-9.86774200
714.99998222,-9.82406500
715.49998221,-9.96493600
715.99998219,-9.97600800
716.49998218,-9.87881400
716.99998216,-9.72440900
717.49998215,-9.54109200
717.99998214,-9.33501400
718.49998212,-9.14124000
718.99998211,-9.03174100
719.49998209,-9.00959600
719.99998208,-9.22121000
720.49998207,-9.64197800
720.99998205,-9.92249000
721.49998204,-10.06336000
721.99998202,-9.74163300
722.49998201,-8.98560400
722.99998199,-8.55437900
723.49998198,-8.47933000
723.99998197,-8.63804100
724.49998195,-9.01574800
724.99998194,-9.53186400
725.49998192,-10.10396000
725.99998191,-10.56841000
726.49998190,-10.84892000
726.99998188,-10.89013000
727.49998187,-10.66314000
727.99998185,-10.45152000
728.49998184,-10.27928000
728.99998182,-10.08428000
729.49998181,-9.92249000
729.99998180,-9.65858700
730.49998178,-9.32332600
730.99998177,-9.32332600
731.49998175,-9.65858700
731.99998174,-9.93602300
732.49998173,-10.15256000
732.99998171,-10.09473000
733.49998170,-9.75947300
733.99998168,-9.54539900
734.49998167,-9.46973400
734.99998166,-9.42052100
735.49998164,-9.40944900
735.99998163,-9.51094900
736.49998161,-9.70533900
736.99998160,-9.92249000
737.49998158,-10.14948000
737.99998157,-10.09473000
738.49998156,-9.75947300
738.99998154,-9.53986200
739.49998153,-9.44266700
739.99998151,-9.49187900
740.49998150,-9.67519700
740.99998149,-9.98585000
741.49998147,-10.37463000
741.99998146,-10.68221000
742.49998144,-10.85507000
742.99998143,-10.95349000
743.49998141,-10.95349000
743.99998140,-10.85507000
744.49998139,-10.68221000
744.99998137,-10.37709000
745.49998136,-9.99938500
745.99998134,-9.63152000
746.49998133,-9.31779000
746.99998132,-9.32332600
747.49998130,-9.65858700
747.99998129,-9.93048700
748.49998127,-10.12488000
748.99998126,-10.17470000
749.49998125,-10.06644000
749.99998123,-9.91264700
750.49998122,-9.73978800
750.99998120,-9.47650100
751.49998119,-9.15231200
751.99998117,-9.09202700
752.49998116,-9.28580200
752.99998115,-9.66227800
753.49998113,-10.19193000
753.99998112,-10.39801000
754.49998110,-10.24606000
754.99998109,-10.13103000
755.49998108,-10.04429000
755.99998106,-9.94586600
756.49998105,-9.85912800
756.99998103,-9.75516700
757.49998102,-9.64689900
757.99998100,-9.64136300
758.49998099,-9.72748500
758.99998098,-9.94217400
759.49998096,-10.26636000
759.99998095,-10.37340000
760.49998093,-10.25467000
760.99998092,-10.09781000
761.49998091,-9.92495100
761.99998089,-9.67273600
762.49998088,-9.39160900
762.99998086,-9.12524500
763.49998085,-8.89886800
763.99998084,-9.00590500
764.49998082,-9.43774600
764.99998081,-9.75947300
765.49998079,-9.94279000
765.99998078,-9.98954200
766.49998076,-9.88127400
766.99998075,-9.71641300
767.49998074,-9.50049200
767.99998072,-9.43959000
768.49998071,-9.52632800
768.99998069,-9.79822800
769.49998068,-10.24114000
769.99998067,-10.34264000
770.49998065,-10.08305000
770.99998064,-9.95939900
771.49998062,-9.94832700
771.99998061,-10.11319000
772.49998059,-10.44845000
772.99998058,-10.54995000
773.49998057,-10.39862000
773.99998055,-10.38447000
774.49998054,-10.48167000
774.99998052,-10.64161000
775.49998051,-10.84646000
775.99998050,-10.95349000
776.49998048,-10.95349000
776.99998047,-10.85199000
777.49998045,-10.66868000
777.99998044,-10.41031000
778.49998043,-10.11872000
778.99998041,-9.91018600
779.49998040,-9.81299100
779.99998038,-9.87635300
780.49998037,-10.11380000
780.99998035,-10.17163000
781.49998034,-10.05290000
781.99998033,-9.94279000
782.49998031,-9.84559500
782.99998030,-9.80437900
783.49998028,-9.84805600
783.99998027,-9.68626900
784.49998026,-9.32886300
784.99998024,-9.33747500
785.49998023,-9.72687000
785.99998021,-9.73240600
786.49998020,-9.36454200
786.99998018,-9.24397100
787.49998017,-9.35162400
787.99998016,-9.56877400
788.49998014,-9.88188800
788.99998013,-10.04183000
789.49998011,-10.03076000
789.99998010,-9.91510800
790.49998009,-9.68811500
790.99998007,-9.63890200
791.49998006,-9.77977300
791.99998004,-9.79084600
792.49998003,-9.69365100
792.99998001,-9.53125000
793.49998000,-9.31532900
793.99997999,-9.25996500
794.49997997,-9.36823300
794.99997996,-9.52509800
795.49997994,-9.70841500
795.99997993,-9.91695300
796.49997992,-10.12242000
796.99997990,-10.16917000
797.49997989,-10.03937000
797.99997987,-9.98154500
798.49997986,-9.99261800
798.99997985,-9.99507800
799.49997983,-9.99507800
799.99997982,-9.98708100
800.49997980,-9.95386200
800.99997979,-10.11319000
801.49997977,-10.44845000
801.99997976,-10.55303000
802.49997975,-10.41216000
802.99997973,-10.34879000
803.49997972,-10.34879000
803.99997970,-10.40108000
804.49997969,-10.49828000
804.99997968,-10.60285000
805.49997966,-10.70005000
805.99997965,-10.75480000
806.49997963,-10.76587000
806.99997962,-10.65883000
807.49997960,-10.44230000
807.99997959,-10.33834000
808.49997958,-10.35987000
808.99997956,-10.36786000
809.49997955,-10.37894000
809.99997953,-10.32419000
810.49997952,-10.20485000
810.99997951,-10.20485000
811.49997949,-10.32419000
811.99997948,-10.38447000
812.49997946,-10.39555000
812.99997945,-10.28851000
813.49997944,-10.07197000
813.99997942,-9.97600800
814.49997941,-10.03076000
814.99997939,-9.88188800
815.49997938,-9.56877400
815.99997936,-9.35162400
816.49997935,-9.24397100
816.99997934,-9.35900500
817.49997932,-9.70533900
817.99997931,-9.81483700
818.49997929,-9.68503900
818.99997928,-9.57000400
819.49997927,-9.46173700
819.99997925,-9.46973400
820.49997924,-9.61060500
820.99997922,-9.56139200
821.49997921,-9.33439900
821.99997919,-9.22182600
822.49997918,-9.22182600
822.99997917,-9.32886300
823.49997915,-9.53371000
823.99997914,-9.69057600
824.49997912,-9.77669800
824.99997911,-9.82652600
825.49997910,-9.82652600
825.99997908,-9.76562400
826.49997907,-9.63582600
826.99997905,-9.68011800
827.49997904,-9.87450700
827.99997903,-10.14087000
828.49997901,-10.45399000
828.99997900,-10.55549000
829.49997898,-10.42569000
829.99997897,-10.31065000
830.49997895,-10.20239000
830.99997894,-10.20792000
831.49997893,-10.33772000
831.99997891,-10.33772000
832.49997890,-10.20792000
832.99997888,-10.20792000
833.49997887,-10.33772000
833.99997886,-10.34080000
834.49997884,-10.22146000
834.99997883,-10.16117000
835.49997881,-10.15010000
835.99997880,-10.25714000
836.49997878,-10.47367000
836.99997877,-10.58317000
837.49997876,-10.58317000
837.99997874,-10.47059000
838.49997873,-10.24360000
838.99997871,-10.19131000
839.49997870,-10.32111000
839.99997869,-10.37894000
840.49997867,-10.36786000
840.99997866,-10.37094000
841.49997864,-10.39247000
841.99997863,-10.29097000
842.49997861,-10.08612000
842.99997860,-9.92618100
843.49997859,-9.82898600
843.99997857,-9.83206100
844.49997856,-9.94033000
844.99997854,-10.05290000
845.49997853,-10.17163000
845.99997852,-10.12488000
846.49997850,-9.93048700
846.99997849,-9.66966000
847.49997847,-9.37807500
847.99997846,-9.16953700
848.49997845,-9.07295700
848.99997843,-9.13078200
849.49997842,-9.34608700
849.99997840,-9.50295300
850.49997839,-9.57800100
850.99997837,-9.67950200
851.49997836,-9.78777000
851.99997835,-9.79084600
852.49997833,-9.69365100
852.99997832,-9.53125000
853.49997830,-9.31532900
853.99997829,-9.25750400
854.49997828,-9.35470000
854.99997826,-9.56631400
855.49997825,-9.86835600
855.99997823,-10.07751000
856.49997822,-10.16363000
856.99997820,-10.16117000
857.49997819,-10.06398000
857.99997818,-9.90157400
858.49997816,-9.68565500
858.99997815,-9.63029000
859.49997813,-9.73855800
859.99997812,-9.89788300
860.49997811,-10.09227000
860.99997809,-10.24914000
861.49997808,-10.34633000
861.99997806,-10.34326000
862.49997805,-10.23499000
862.99997804,-10.13103000
863.49997802,-10.04429000
863.99997801,-9.94279000
864.49997799,-9.84559500
864.99997798,-9.79884200
865.49997796,-9.82098900
865.99997795,-9.76562400
866.49997794,-9.63582600
866.99997792,-9.68011800
867.49997791,-9.87450700
867.99997789,-10.14887000
868.49997788,-10.49520000
868.99997787,-10.43984000
869.49997785,-9.98585000
869.99997784,-9.70841500
870.49997782,-9.61122000
870.99997781,-9.72379400
871.49997779,-10.04798000
871.99997778,-10.25714000
872.49997777,-10.32173000
872.99997775,-10.42569000
873.49997774,-10.55549000
873.99997772,-10.45152000
874.49997771,-10.12734000
874.99997770,-9.91018600
875.49997768,-9.81299100
875.99997767,-9.87881400
876.49997765,-10.12795000
876.99997764,-10.13041000
877.49997763,-9.89234600
877.99997761,-9.78284900
878.49997760,-9.80437900
878.99997758,-9.81791200
879.49997757,-9.85113100
879.99997755,-9.69180600
880.49997754,-9.35654400
880.99997753,-9.24950800
881.49997751,-9.37930500
881.99997750,-9.48634300
882.49997748,-9.56139200
882.99997747,-9.71272100
883.49997746,-9.90711100
883.99997744,-10.06951000
884.49997743,-10.18824000
884.99997741,-10.07812000
885.49997740,-9.74286400
885.99997738,-9.58353800
886.49997737,-9.61675600
886.99997736,-9.61921700
887.49997734,-9.59768700
887.99997733,-9.69918700
888.49997731,-9.90403500
888.99997730,-10.06644000
889.49997729,-10.17470000
889.99997727,-10.11688000
890.49997726,-9.88988600
890.99997724,-9.78284900
891.49997723,-9.80437900
891.99997722,-9.81237700
892.49997720,-9.82344900
892.99997719,-9.77116100
893.49997717,-9.66350800
893.99997716,-9.60814500
894.49997714,-9.60814500
894.99997713,-9.66043300
895.49997712,-9.75762700
895.99997710,-9.86466500
896.49997709,-9.97293300
896.99997707,-9.97293300
897.49997706,-9.86466500
897.99997705,-9.75209100
898.49997703,-9.63336600
898.99997702,-9.68811500
899.49997700,-9.91510800
899.99997699,-10.02215000
900.49997697,-10.00062000
900.99997696,-9.99753900
901.49997695,-10.00861000
901.99997693,-9.95386200
902.49997692,-9.83452200
