Time,Channel B
(ns),(mV)

-100.99999470,-9.61122000
-100.49999472,-9.62229300
-99.99999473,-9.61921700
-99.49999474,-9.59768700
-98.99999476,-9.70164800
-98.49999477,-9.91818300
-97.99999479,-10.02215000
-97.49999480,-10.00062000
-96.99999481,-9.99261800
-96.49999483,-9.98154500
-95.99999484,-10.03629000
-95.49999486,-10.15563000
-94.99999487,-10.16117000
-94.49999488,-10.06398000
-93.99999490,-9.90157400
-93.49999491,-9.68565500
-92.99999493,-9.63336600
-92.49999494,-9.75209100
-91.99999496,-9.86220500
-91.49999497,-9.95939900
-90.99999498,-10.00861000
-90.49999500,-9.99753900
-89.99999501,-9.99753900
-89.49999503,-10.00861000
-88.99999504,-9.95632300
-88.49999505,-9.84867000
-87.99999507,-9.79330700
-87.49999508,-9.79330700
-86.99999510,-9.85420700
-86.49999511,-9.98400600
-85.99999513,-9.92618100
-85.49999514,-9.67704200
-84.99999515,-9.67150600
-84.49999517,-9.89849900
-83.99999518,-10.06090000
-83.49999520,-10.14702000
-82.99999521,-10.19377000
-82.49999522,-10.18270000
-81.99999524,-10.18270000
-81.49999525,-10.19377000
-80.99999527,-10.14149000
-80.49999528,-10.03383000
-79.99999529,-9.98154500
-79.49999531,-9.99261800
-78.99999532,-9.99753900
-78.49999534,-10.00861000
-77.99999535,-9.95386200
-77.49999537,-9.83452200
-76.99999538,-9.83452200
-76.49999539,-9.95386200
-75.99999541,-10.01415000
-75.49999542,-10.02522000
-74.99999544,-9.91264700
-74.49999545,-9.67458200
-73.99999546,-9.68011800
-73.49999548,-9.93971300
-72.99999549,-9.94525100
-72.49999551,-9.70718500
-71.99999552,-9.59461100
-71.49999554,-9.60568300
-70.99999555,-9.66904400
-70.49999556,-9.79884200
-69.99999558,-9.74347900
-69.49999559,-9.50602800
-68.99999561,-9.44512700
-68.49999562,-9.55339500
-67.99999563,-9.71579600
-67.49999565,-9.92064400
-66.99999566,-10.02215000
-66.49999568,-10.00062000
-65.99999569,-9.99753900
-65.49999571,-10.00861000
-64.99999572,-9.95386200
-64.49999573,-9.83452200
-63.99999575,-9.83452200
-63.49999576,-9.95386200
-62.99999578,-10.01415000
-62.49999579,-10.02522000
-61.99999580,-9.91818300
-61.49999582,-9.70164800
-60.99999583,-9.59215000
-60.49999585,-9.59215000
-59.99999586,-9.70472400
-59.49999587,-9.93171700
-58.99999589,-9.98646600
-58.49999590,-9.86774200
-57.99999592,-9.75516700
-57.49999593,-9.64689900
-56.99999595,-9.64936000
-56.49999596,-9.76870100
-55.99999597,-9.82344900
-55.49999599,-9.81237700
-54.99999600,-9.80991600
-54.49999602,-9.80991600
-53.99999603,-9.80991600
-53.49999604,-9.80991600
-52.99999606,-9.80991600
-52.49999607,-9.80991600
-51.99999609,-9.80745600
-51.49999610,-9.79638200
-50.99999612,-9.84867000
-50.49999613,-9.95632300
-49.99999614,-10.01169000
-49.49999616,-10.01169000
-48.99999617,-9.95386200
-48.49999619,-9.83452200
-47.99999620,-9.83452200
-47.49999621,-9.95386200
-46.99999623,-10.00861000
-46.49999624,-9.99753900
-45.99999626,-9.99507800
-45.49999627,-9.99507800
-44.99999628,-9.99507800
-44.49999630,-9.99507800
-43.99999631,-10.00062000
-43.49999633,-10.02215000
-42.99999634,-9.91510800
-42.49999636,-9.68811500
-41.99999637,-9.63582600
-41.49999638,-9.76562400
-40.99999640,-9.82344900
-40.49999641,-9.81237700
-39.99999643,-9.80745600
-39.49999644,-9.79638200
-38.99999645,-9.85666800
-38.49999647,-9.99753900
-37.99999648,-9.89050200
-37.49999650,-9.54416800
-36.99999651,-9.43159500
-36.49999653,-9.55032000
-35.99999654,-9.71579600
-35.49999655,-9.92064400
-34.99999657,-10.02768000
-34.49999658,-10.02768000
-33.99999660,-9.91510800
-33.49999661,-9.68811500
-32.99999662,-9.63336600
-32.49999664,-9.75209100
-31.99999665,-9.86220500
-31.49999667,-9.95939900
-30.99999668,-10.00861000
-30.49999669,-9.99753900
-29.99999671,-9.99753900
-29.49999672,-10.00861000
-28.99999674,-9.95078800
-28.49999675,-9.82098900
-27.99999677,-9.88188800
-27.49999678,-10.14149000
-26.99999679,-10.08612000
-26.49999681,-9.71887300
-25.99999682,-9.66658400
-25.49999684,-9.93725300
-24.99999685,-9.93971300
-24.49999686,-9.68011800
-23.99999688,-9.67458200
-23.49999689,-9.91264700
-22.99999691,-10.02768000
-22.49999692,-10.02768000
-21.99999694,-9.91264700
-21.49999695,-9.67458200
-20.99999696,-9.68011800
-20.49999698,-9.93971300
-19.99999699,-9.94525100
-19.49999701,-9.70718500
-18.99999702,-9.59768700
-18.49999703,-9.61921700
-17.99999705,-9.61921700
-17.49999706,-9.59768700
-16.99999708,-9.70164800
-16.49999709,-9.91818300
-15.99999710,-10.02522000
-15.49999712,-10.01415000
-14.99999713,-9.95939900
-14.49999715,-9.86220500
-13.99999716,-9.75516700
-13.49999718,-9.64689900
-12.99999719,-9.64689900
-12.49999720,-9.75516700
-11.99999722,-9.86466500
-11.49999723,-9.97293300
-10.99999725,-9.96739700
-10.49999726,-9.83759800
-9.99999727,-9.83759800
-9.49999729,-9.96739700
-8.99999730,-9.97047100
-8.49999732,-9.85113100
-7.99999733,-9.79330700
-7.49999735,-9.79330700
-6.99999736,-9.85420700
-6.49999737,-9.98400600
-5.99999739,-9.92618100
-5.49999740,-9.67704200
-4.99999742,-9.67150600
-4.49999743,-9.89849900
-3.99999744,-10.06644000
-3.49999746,-10.17470000
-2.99999747,-10.11688000
-2.49999749,-9.88988600
-1.99999750,-9.78284900
-1.49999752,-9.80437900
-0.99999753,-9.80991600
-0.49999754,-9.80991600
0.00000244,-9.80991600
0.50000243,-9.80991600
1.00000241,-9.81237700
1.50000240,-9.82344900
2.00000239,-9.76870100
2.50000237,-9.64936000
3.00000236,-9.64689900
3.50000234,-9.75516700
4.00000233,-9.86774200
4.50000232,-9.98646600
5.00000230,-9.92864100
5.50000229,-9.69119100
6.00000227,-9.63582600
6.50000226,-9.76562400
7.00000224,-9.82652600
7.50000223,-9.82652600
8.00000222,-9.76870100
8.50000220,-9.64936000
9.00000219,-9.64936000
9.50000217,-9.76870100
10.00000216,-9.82098900
10.50000215,-9.79884200
11.00000213,-9.85113100
11.50000212,-9.97047100
12.00000210,-9.97293300
12.50000209,-9.86466500
13.00000207,-9.75516700
13.50000206,-9.64689900
14.00000205,-9.64936000
14.50000203,-9.76870100
15.00000202,-9.82098900
15.50000200,-9.79884200
16.00000199,-9.84559500
16.50000198,-9.94279000
17.00000196,-10.04983000
17.50000195,-10.15810000
18.00000193,-10.15563000
18.50000192,-10.03629000
19.00000191,-9.98154500
19.50000189,-9.99261800
20.00000188,-10.00062000
20.50000186,-10.02215000
21.00000185,-9.91264700
21.50000183,-9.67458200
22.00000182,-9.67458200
22.50000181,-9.91264700
23.00000179,-10.02522000
23.50000178,-10.01415000
24.00000176,-9.95386200
24.50000175,-9.83452200
25.00000174,-9.84005800
25.50000172,-9.98092900
26.00000171,-9.92864100
26.50000169,-9.69119100
27.00000168,-9.63336600
27.50000166,-9.75209100
28.00000165,-9.86220500
28.50000164,-9.95939900
29.00000162,-10.01169000
29.50000161,-10.01169000
30.00000159,-9.95386200
30.50000158,-9.83452200
31.00000157,-9.83452200
31.50000155,-9.95386200
32.00000154,-10.00861000
32.50000152,-9.99753900
33.00000151,-9.99753900
33.50000150,-10.00861000
34.00000148,-9.95632300
34.50000147,-9.84867000
35.00000145,-9.79084600
35.50000144,-9.77977300
36.00000142,-9.88988600
36.50000141,-10.11688000
37.00000140,-10.16917000
37.50000138,-10.03937000
38.00000137,-9.98400600
38.50000135,-10.00615000
39.00000134,-9.95386200
39.50000133,-9.83452200
40.00000131,-9.83452200
40.50000130,-9.95386200
41.00000128,-10.01722000
41.50000127,-10.03875000
42.00000125,-9.87389300
42.50000124,-9.52817300
43.00000123,-9.47280900
43.50000121,-9.71087600
44.00000120,-9.87573700
44.50000118,-9.96186000
45.00000117,-10.00861000
45.50000116,-9.99753900
46.00000114,-9.99753900
46.50000113,-10.00861000
47.00000111,-9.95386200
47.50000110,-9.83452200
48.00000108,-9.83452200
48.50000107,-9.95386200
49.00000106,-10.01415000
49.50000104,-10.02522000
50.00000103,-9.91818300
50.50000101,-9.70164800
51.00000100,-9.59215000
51.50000099,-9.59215000
52.00000097,-9.70718500
52.50000096,-9.94525100
53.00000094,-9.94279000
53.50000093,-9.69365100
54.00000092,-9.63582600
54.50000090,-9.76562400
55.00000089,-9.82098900
55.50000087,-9.79884200
56.00000086,-9.84867000
56.50000084,-9.95632300
57.00000083,-10.01169000
57.50000082,-10.01169000
58.00000080,-9.95632300
58.50000079,-9.84867000
59.00000077,-9.79330700
59.50000076,-9.79330700
60.00000075,-9.84867000
60.50000073,-9.95632300
61.00000072,-10.01169000
61.50000070,-10.01169000
62.00000069,-9.95939900
62.50000067,-9.86220500
63.00000066,-9.75516700
63.50000065,-9.64689900
64.00000063,-9.64936000
64.50000062,-9.76870100
65.00000060,-9.82652600
65.50000059,-9.82652600
66.00000058,-9.76870100
66.50000056,-9.64936000
67.00000055,-9.64382400
67.50000053,-9.74101800
68.00000052,-9.90649500
68.50000051,-10.13349000
69.00000049,-10.13041000
69.50000048,-9.89234600
70.00000046,-9.78531000
70.50000045,-9.81791200
71.00000043,-9.76870100
71.50000042,-9.64936000
72.00000041,-9.64936000
72.50000039,-9.76870100
73.00000038,-9.82652600
73.50000036,-9.82652600
74.00000035,-9.77116100
74.50000034,-9.66350800
75.00000032,-9.60814500
75.50000031,-9.60814500
76.00000029,-9.66043300
76.50000028,-9.75762700
77.00000026,-9.86220500
77.50000025,-9.95939900
78.00000024,-10.00861000
78.50000022,-9.99753900
79.00000021,-9.99507800
79.50000019,-9.99507800
80.00000018,-9.99507800
80.50000017,-9.99507800
81.00000015,-10.00062000
81.50000014,-10.02215000
82.00000012,-9.91510800
82.50000011,-9.68811500
83.00000010,-9.63029000
83.50000008,-9.73855800
84.00000007,-9.90649500
84.50000005,-10.13349000
85.00000004,-10.13595000
85.50000002,-9.92003000
86.00000001,-9.70287800
86.50000000,-9.49741600
86.99999998,-9.44820400
87.49999997,-9.56692900
87.99999995,-9.67396600
88.49999994,-9.76070300
88.99999993,-9.86774200
89.49999991,-9.98646600
89.99999990,-9.92618100
90.49999988,-9.67704200
90.99999987,-9.67458200
91.49999985,-9.91264700
91.99999984,-10.02215000
92.49999983,-10.00062000
92.99999981,-10.00062000
93.49999980,-10.02215000
93.99999978,-9.91510800
94.49999977,-9.68811500
94.99999976,-9.63336600
95.49999974,-9.75209100
95.99999973,-9.86220500
96.49999971,-9.95939900
96.99999970,-10.01415000
97.49999969,-10.02522000
97.99999967,-9.91510800
98.49999966,-9.68811500
98.99999964,-9.63029000
99.49999963,-9.73855800
99.99999961,-9.90895600
100.49999960,-10.14702000
100.99999959,-10.08920000
101.49999957,-9.73240600
101.99999956,-9.62229300
102.49999954,-9.76316400
102.99999953,-9.82098900
103.49999952,-9.79884200
103.99999950,-9.84559500
104.49999949,-9.94279000
104.99999947,-10.04983000
105.49999946,-10.15810000
105.99999944,-10.16117000
106.49999943,-10.06398000
106.99999942,-9.89849900
107.49999940,-9.67150600
107.99999939,-9.67458200
108.49999937,-9.91264700
108.99999936,-10.02768000
109.49999935,-10.02768000
109.99999933,-9.91510800
110.49999932,-9.68811500
110.99999930,-9.63336600
111.49999929,-9.75209100
111.99999927,-9.86466500
112.49999926,-9.97293300
112.99999925,-9.97293300
113.49999923,-9.86466500
113.99999922,-9.75516700
114.49999920,-9.64689900
114.99999919,-9.64689900
115.49999918,-9.75516700
115.99999916,-9.86220500
116.49999915,-9.95939900
116.99999913,-10.01169000
117.49999912,-10.01169000
117.99999911,-9.95939900
118.49999909,-9.86220500
118.99999908,-9.75209100
119.49999906,-9.63336600
119.99999905,-9.68811500
120.49999903,-9.91510800
120.99999902,-10.02768000
121.49999901,-10.02768000
121.99999899,-9.91510800
122.49999898,-9.68811500
122.99999896,-9.63336600
123.49999895,-9.75209100
123.99999894,-9.86220500
124.49999892,-9.95939900
124.99999891,-10.01415000
125.49999889,-10.02522000
125.99999888,-9.91510800
126.49999886,-9.68811500
126.99999885,-9.63336600
127.49999884,-9.75209100
127.99999882,-9.86220500
128.49999881,-9.95939900
128.99999879,-10.01169000
129.49999878,-10.01169000
129.99999877,-9.95632300
130.49999875,-9.84867000
130.99999874,-9.79330700
131.49999872,-9.79330700
131.99999871,-9.85113100
132.49999870,-9.97047100
132.99999868,-9.97047100
133.49999867,-9.85113100
133.99999865,-9.79884200
134.49999864,-9.82098900
134.99999862,-9.77116100
135.49999861,-9.66350800
135.99999860,-9.60814500
136.49999858,-9.60814500
136.99999857,-9.66596900
137.49999855,-9.78531000
137.99999854,-9.78223300
138.49999853,-9.65243500
138.99999851,-9.64689900
139.49999850,-9.75516700
139.99999848,-9.86220500
140.49999847,-9.95939900
140.99999845,-10.01415000
141.49999844,-10.02522000
141.99999843,-9.91510800
142.49999841,-9.68811500
142.99999840,-9.63336600
143.49999838,-9.75209100
143.99999837,-9.86466500
144.49999836,-9.97293300
144.99999834,-9.97293300
145.49999833,-9.86466500
145.99999831,-9.75516700
146.49999830,-9.64689900
146.99999829,-9.64689900
147.49999827,-9.75516700
147.99999826,-9.86220500
148.49999824,-9.95939900
148.99999823,-10.00861000
149.49999821,-9.99753900
149.99999820,-10.00062000
150.49999819,-10.02215000
150.99999817,-9.91510800
151.49999816,-9.68811500
151.99999814,-9.63336600
152.49999813,-9.75209100
152.99999812,-9.86774200
153.49999810,-9.98646600
153.99999809,-9.93417800
154.49999807,-9.71825700
154.99999806,-9.55032000
155.49999804,-9.43159500
155.99999803,-9.54724300
156.49999802,-9.90403500
156.99999800,-9.95324800
157.49999799,-9.68257800
157.99999797,-9.67704200
158.49999796,-9.92618100
158.99999795,-9.98646600
159.49999793,-9.86774200
159.99999792,-9.75516700
160.49999790,-9.64689900
160.99999789,-9.65243500
161.49999787,-9.78223300
161.99999786,-9.78223300
162.49999785,-9.65243500
162.99999783,-9.64936000
163.49999782,-9.76870100
163.99999780,-9.82344900
164.49999779,-9.81237700
164.99999778,-9.80745600
165.49999776,-9.79638200
165.99999775,-9.85420700
166.49999773,-9.98400600
166.99999772,-9.93171700
167.49999771,-9.70472400
167.99999769,-9.59461100
168.49999768,-9.60568300
168.99999766,-9.66596900
169.49999765,-9.78531000
169.99999763,-9.78531000
170.49999762,-9.66596900
170.99999761,-9.60568300
171.49999759,-9.59461100
171.99999758,-9.70718500
172.49999756,-9.94525100
172.99999755,-9.93971300
173.49999754,-9.68011800
173.99999752,-9.67458200
174.49999751,-9.91264700
174.99999749,-10.02522000
175.49999748,-10.01415000
175.99999746,-9.95386200
176.49999745,-9.83452200
176.99999744,-9.83452200
177.49999742,-9.95386200
177.99999741,-10.00861000
178.49999739,-9.99753900
178.99999738,-9.99261800
179.49999737,-9.98154500
179.99999735,-10.03629000
180.49999734,-10.15563000
180.99999732,-10.16117000
181.49999731,-10.06398000
181.99999730,-9.90157400
182.49999728,-9.68565500
182.99999727,-9.63336600
183.49999725,-9.75209100
183.99999724,-9.86220500
184.49999722,-9.95939900
184.99999721,-10.01415000
185.49999720,-10.02522000
185.99999718,-9.91510800
186.49999717,-9.68811500
186.99999715,-9.63336600
187.49999714,-9.75209100
187.99999713,-9.86466500
188.49999711,-9.97293300
188.99999710,-9.96739700
189.49999708,-9.83759800
189.99999707,-9.83206100
190.49999705,-9.94033000
190.99999704,-10.04983000
191.49999703,-10.15810000
191.99999701,-10.15563000
192.49999700,-10.03629000
192.99999698,-9.98400600
193.49999697,-10.00615000
193.99999696,-9.95386200
194.49999694,-9.83452200
194.99999693,-9.83206100
195.49999691,-9.94033000
195.99999690,-10.04983000
196.49999689,-10.15810000
196.99999687,-10.15563000
197.49999686,-10.03629000
197.99999684,-9.98708100
198.49999683,-10.01968000
198.99999681,-9.91510800
199.49999680,-9.68811500
199.99999679,-9.63336600
200.49999677,-9.75209100
200.99999676,-9.86220500
201.49999674,-9.95939900
201.99999673,-10.01169000
202.49999672,-10.01169000
202.99999670,-9.95386200
203.49999669,-9.83452200
203.99999667,-9.83452200
204.49999666,-9.95386200
204.99999664,-10.01415000
205.49999663,-10.02522000
205.99999662,-9.91510800
206.49999660,-9.68811500
206.99999659,-9.63336600
207.49999657,-9.75209100
207.99999656,-9.86220500
208.49999655,-9.95939900
208.99999653,-10.01169000
209.49999652,-10.01169000
209.99999650,-9.95632300
210.49999649,-9.84867000
210.99999648,-9.79084600
211.49999646,-9.77977300
211.99999645,-9.88988600
212.49999643,-10.11688000
212.99999642,-10.17163000
213.49999640,-10.05290000
213.99999639,-9.94586600
214.49999638,-9.85912800
214.99999636,-9.75762700
215.49999635,-9.66043300
215.99999633,-9.60814500
216.49999632,-9.60814500
216.99999631,-9.66596900
217.49999629,-9.78531000
217.99999628,-9.78223300
218.49999626,-9.65243500
218.99999625,-9.64689900
219.49999623,-9.75516700
219.99999622,-9.85912800
220.49999621,-9.94586600
220.99999619,-10.04983000
221.49999618,-10.15810000
221.99999616,-10.15810000
222.49999615,-10.04983000
222.99999614,-9.94033000
223.49999612,-9.83206100
223.99999611,-9.83452200
224.49999609,-9.95386200
224.99999608,-10.01169000
225.49999606,-10.01169000
225.99999605,-9.95386200
226.49999604,-9.83452200
226.99999602,-9.83452200
227.49999601,-9.95386200
227.99999599,-10.01169000
228.49999598,-10.01169000
228.99999597,-9.95386200
229.49999595,-9.83452200
229.99999594,-9.84005800
230.49999592,-9.98092900
230.99999591,-9.93171700
231.49999590,-9.70472400
231.99999588,-9.59215000
232.49999587,-9.59215000
232.99999585,-9.70718500
233.49999584,-9.94525100
233.99999582,-9.94279000
234.49999581,-9.69365100
234.99999580,-9.63582600
235.49999578,-9.76562400
235.99999577,-9.82344900
236.49999575,-9.81237700
236.99999574,-9.80991600
237.49999573,-9.80991600
237.99999571,-9.80745600
238.49999570,-9.79638200
238.99999568,-9.84867000
239.49999567,-9.95632300
239.99999565,-10.00861000
240.49999564,-9.99753900
240.99999563,-9.99753900
241.49999561,-10.00861000
241.99999560,-9.95632300
242.49999558,-9.84867000
242.99999557,-9.79330700
243.49999556,-9.79330700
243.99999554,-9.85420700
244.49999553,-9.98400600
244.99999551,-9.93171700
245.49999550,-9.70472400
245.99999549,-9.59461100
246.49999547,-9.60568300
246.99999546,-9.66043300
247.49999544,-9.75762700
247.99999543,-9.85912800
248.49999541,-9.94586600
248.99999540,-10.05536000
249.49999539,-10.18516000
249.99999537,-10.07566000
250.49999536,-9.72933000
250.99999534,-9.61983200
251.49999533,-9.74963100
251.99999532,-9.86220500
252.49999530,-9.95939900
252.99999529,-10.01415000
253.49999527,-10.02522000
253.99999526,-9.91264700
254.49999524,-9.67458200
254.99999523,-9.67150600
255.49999522,-9.89849900
255.99999520,-10.06090000
256.49999519,-10.14702000
256.99999517,-10.20485000
257.49999516,-10.23745000
257.99999515,-10.02030000
258.49999513,-9.56631400
258.99999512,-9.45681600
259.49999510,-9.69426600
259.99999509,-9.92003000
260.49999508,-10.13595000
260.99999506,-10.13349000
261.49999505,-9.90649500
261.99999503,-9.74101800
262.49999502,-9.64382400
262.99999500,-9.65243500
263.49999499,-9.78223300
263.99999498,-9.78223300
264.49999496,-9.65243500
264.99999495,-9.65243500
265.49999493,-9.78223300
265.99999492,-9.78223300
266.49999491,-9.65243500
266.99999489,-9.64689900
267.49999488,-9.75516700
267.99999486,-9.86220500
268.49999485,-9.95939900
268.99999483,-10.01415000
269.49999482,-10.02522000
269.99999481,-9.91510800
270.49999479,-9.68811500
270.99999478,-9.63336600
271.49999476,-9.75209100
271.99999475,-9.86220500
272.49999474,-9.95939900
272.99999472,-10.00861000
273.49999471,-9.99753900
273.99999469,-9.99507800
274.49999468,-9.99507800
274.99999466,-9.99261800
275.49999465,-9.98154500
275.99999464,-10.04183000
276.49999462,-10.18270000
276.99999461,-10.07259000
277.49999459,-9.71579600
277.99999458,-9.66350800
278.49999457,-9.92310400
278.99999455,-9.98400600
279.49999454,-9.85420700
279.99999452,-9.79330700
280.49999451,-9.79330700
280.99999450,-9.85420700
281.49999448,-9.98400600
281.99999447,-9.92864100
282.49999445,-9.69119100
282.99999444,-9.63336600
283.49999442,-9.75209100
283.99999441,-9.86466500
284.49999440,-9.97293300
284.99999438,-9.97293300
285.49999437,-9.86466500
285.99999435,-9.75516700
286.49999434,-9.64689900
286.99999433,-9.64936000
287.49999431,-9.76870100
287.99999430,-9.82344900
288.49999428,-9.81237700
288.99999427,-9.81545200
289.49999425,-9.83698400
289.99999424,-9.72748500
290.49999423,-9.48941900
290.99999421,-9.48634300
291.49999420,-9.71333600
291.99999418,-9.87881400
292.49999417,-9.97600800
292.99999416,-9.96739700
293.49999414,-9.83759800
293.99999413,-9.83759800
294.49999411,-9.96739700
294.99999410,-9.97293300
295.49999409,-9.86466500
295.99999407,-9.75209100
296.49999406,-9.63336600
296.99999404,-9.69119100
297.49999403,-9.92864100
297.99999401,-9.98400600
298.49999400,-9.85420700
298.99999399,-9.79330700
299.49999397,-9.79330700
299.99999396,-9.85113100
300.49999394,-9.97047100
300.99999393,-9.97293300
301.49999392,-9.86466500
301.99999390,-9.74963100
302.49999389,-9.61983200
302.99999387,-9.72933000
303.49999386,-10.07566000
303.99999384,-10.18270000
304.49999383,-10.04183000
304.99999382,-9.98708100
305.49999380,-10.01968000
305.99999379,-9.91818300
306.49999377,-9.70164800
306.99999376,-9.59215000
307.49999375,-9.59215000
307.99999373,-9.70718500
308.49999372,-9.94525100
308.99999370,-9.94279000
309.49999369,-9.69365100
309.99999368,-9.63890200
310.49999366,-9.77977300
310.99999365,-9.78531000
311.49999363,-9.66596900
311.99999362,-9.60568300
312.49999360,-9.59461100
312.99999359,-9.70718500
313.49999358,-9.94525100
313.99999356,-9.94279000
314.49999355,-9.69365100
314.99999353,-9.63336600
315.49999352,-9.75209100
315.99999351,-9.86774200
316.49999349,-9.98646600
316.99999348,-9.93417800
317.49999346,-9.71825700
317.99999345,-9.55032000
318.49999343,-9.43159500
318.99999342,-9.53863100
319.49999341,-9.86281900
319.99999339,-10.07751000
320.49999338,-10.16363000
320.99999336,-10.16117000
321.49999335,-10.06398000
321.99999334,-9.90157400
322.49999332,-9.68565500
322.99999331,-9.63029000
323.49999329,-9.73855800
323.99999328,-9.90895600
324.49999327,-10.14702000
324.99999325,-10.08612000
325.49999324,-9.71887300
325.99999322,-9.66350800
326.49999321,-9.92310400
326.99999319,-9.98400600
327.49999318,-9.85420700
327.99999317,-9.79330700
328.49999315,-9.79330700
328.99999314,-9.85420700
329.49999312,-9.98400600
329.99999311,-9.93171700
330.49999310,-9.70472400
330.99999308,-9.59461100
331.49999307,-9.60568300
331.99999305,-9.66043300
332.49999304,-9.75762700
332.99999302,-9.86466500
333.49999301,-9.97293300
333.99999300,-9.96739700
334.49999298,-9.83759800
334.99999297,-9.83452200
335.49999295,-9.95386200
335.99999294,-10.00861000
336.49999293,-9.99753900
336.99999291,-10.00062000
337.49999290,-10.02215000
337.99999288,-9.91510800
338.49999287,-9.68811500
338.99999285,-9.63336600
339.49999284,-9.75209100
339.99999283,-9.86220500
340.49999281,-9.95939900
340.99999280,-10.01169000
341.49999278,-10.01169000
341.99999277,-9.95632300
342.49999276,-9.84867000
342.99999274,-9.79638200
343.49999273,-9.80745600
343.99999271,-9.80745600
344.49999270,-9.79638200
344.99999269,-9.85420700
345.49999267,-9.98400600
345.99999266,-9.92864100
346.49999264,-9.69119100
346.99999263,-9.63582600
347.49999261,-9.76562400
347.99999260,-9.82652600
348.49999259,-9.82652600
348.99999257,-9.76870100
349.49999256,-9.64936000
349.99999254,-9.64689900
350.49999253,-9.75516700
350.99999252,-9.86220500
351.49999250,-9.95939900
351.99999249,-10.00615000
352.49999247,-9.98400600
352.99999246,-10.04183000
353.49999244,-10.18270000
353.99999243,-10.07812000
354.49999242,-9.74286400
354.99999240,-9.57554100
355.49999239,-9.57554100
355.99999237,-9.74840100
356.49999236,-10.10581000
356.99999235,-10.09719000
357.49999233,-9.70780000
357.99999232,-9.70472400
358.49999230,-10.08366000
358.99999229,-10.14702000
359.49999228,-9.90895600
359.99999226,-9.73855800
360.49999225,-9.63029000
360.99999223,-9.69365100
361.49999222,-9.94279000
361.99999220,-9.94525100
362.49999219,-9.70718500
362.99999218,-9.59215000
363.49999216,-9.59215000
363.99999215,-9.70164800
364.49999213,-9.91818300
364.99999212,-10.02522000
365.49999211,-10.01415000
365.99999209,-9.95386200
366.49999208,-9.83452200
366.99999206,-9.83452200
367.49999205,-9.95386200
367.99999203,-10.00861000
368.49999202,-9.99753900
368.99999201,-10.00062000
369.49999199,-10.02215000
369.99999198,-9.91510800
370.49999196,-9.68811500
370.99999195,-9.63336600
371.49999194,-9.75209100
371.99999192,-9.86466500
372.49999191,-9.97293300
372.99999189,-9.97047100
373.49999188,-9.85113100
373.99999187,-9.79638200
374.49999185,-9.80745600
374.99999184,-9.80745600
375.49999182,-9.79638200
375.99999181,-9.84867000
376.49999179,-9.95632300
376.99999178,-10.01169000
377.49999177,-10.01169000
377.99999175,-9.95632300
378.49999174,-9.84867000
378.99999172,-9.79638200
379.49999171,-9.80745600
379.99999170,-9.80745600
380.49999168,-9.79638200
380.99999167,-9.85420700
381.49999165,-9.98400600
381.99999164,-9.92864100
382.49999162,-9.69119100
382.99999161,-9.63336600
383.49999160,-9.75209100
383.99999158,-9.86220500
384.49999157,-9.95939900
384.99999155,-10.01169000
385.49999154,-10.01169000
385.99999153,-9.95632300
386.49999151,-9.84867000
386.99999150,-9.79330700
387.49999148,-9.79330700
387.99999147,-9.85420700
388.49999145,-9.98400600
388.99999144,-9.92864100
389.49999143,-9.69119100
389.99999141,-9.63582600
390.49999140,-9.76562400
390.99999138,-9.82652600
391.49999137,-9.82652600
391.99999136,-9.76870100
392.49999134,-9.64936000
392.99999133,-9.65243500
393.49999131,-9.78223300
393.99999130,-9.78223300
394.49999129,-9.65243500
394.99999127,-9.64689900
395.49999126,-9.75516700
395.99999124,-9.86220500
396.49999123,-9.95939900
396.99999121,-10.01415000
397.49999120,-10.02522000
397.99999119,-9.91510800
398.49999117,-9.68811500
398.99999116,-9.63336600
399.49999114,-9.75209100
399.99999113,-9.86466500
400.49999112,-9.97293300
400.99999110,-9.97293300
401.49999109,-9.86466500
401.99999107,-9.75209100
402.49999106,-9.63336600
402.99999104,-9.68811500
403.49999103,-9.91510800
403.99999102,-10.02215000
404.49999100,-10.00062000
404.99999099,-9.99753900
405.49999097,-10.00861000
405.99999096,-9.95632300
406.49999095,-9.84867000
406.99999093,-9.79638200
407.49999092,-9.80745600
407.99999090,-9.80991600
408.49999089,-9.80991600
408.99999088,-9.81237700
409.49999086,-9.82344900
409.99999085,-9.76870100
410.49999083,-9.64936000
410.99999082,-9.64689900
411.49999080,-9.75516700
411.99999079,-9.86774200
412.49999078,-9.98646600
412.99999076,-9.92864100
413.49999075,-9.69119100
413.99999073,-9.63582600
414.49999072,-9.76562400
414.99999071,-9.82344900
415.49999069,-9.81237700
415.99999068,-9.80437900
416.49999066,-9.78284900
416.99999065,-9.88988600
417.49999063,-10.11688000
417.99999062,-10.17163000
418.49999061,-10.05290000
418.99999059,-9.93725300
419.49999058,-9.81852800
419.99999056,-9.88188800
420.49999055,-10.14149000
420.99999054,-10.08612000
421.49999052,-9.71887300
421.99999051,-9.66658400
422.49999049,-9.93725300
422.99999048,-9.94525100
423.49999047,-9.70718500
423.99999045,-9.59215000
424.49999044,-9.59215000
424.99999042,-9.70164800
425.49999041,-9.91818300
425.99999039,-10.02215000
426.49999038,-10.00062000
426.99999037,-9.99507800
427.49999035,-9.99507800
427.99999034,-9.99507800
428.49999032,-9.99507800
428.99999031,-9.99507800
429.49999030,-9.99507800
429.99999028,-9.99753900
430.49999027,-10.00861000
430.99999025,-9.95939900
431.49999024,-9.86220500
431.99999022,-9.75209100
432.49999021,-9.63336600
432.99999020,-9.69365100
433.49999018,-9.94279000
433.99999017,-9.93971300
434.49999015,-9.68011800
434.99999014,-9.67458200
435.49999013,-9.91264700
435.99999011,-10.02522000
436.49999010,-10.01415000
436.99999008,-9.95078800
437.49999007,-9.82098900
437.99999006,-9.87881400
438.49999004,-10.12795000
438.99999003,-10.13041000
439.49999001,-9.89234600
439.99999000,-9.77977300
440.49998998,-9.79084600
440.99998997,-9.85113100
441.49998996,-9.97047100
441.99998994,-9.97047100
442.49998993,-9.85113100
442.99998991,-9.79884200
443.49998990,-9.82098900
443.99998989,-9.76562400
444.49998987,-9.63582600
444.99998986,-9.69119100
445.49998984,-9.92864100
445.99998983,-9.98400600
446.49998981,-9.85420700
446.99998980,-9.79330700
447.49998979,-9.79330700
447.99998977,-9.84867000
448.49998976,-9.95632300
448.99998974,-10.01968000
449.49998973,-10.05229000
449.99998972,-9.83267700
450.49998970,-9.36761900
450.99998969,-9.30979300
451.49998967,-9.65612700
451.99998966,-9.93356200
452.49998964,-10.13902000
452.99998963,-10.13041000
453.49998962,-9.89234600
453.99998960,-9.78284900
454.49998959,-9.80437900
454.99998957,-9.81237700
455.49998956,-9.82344900
455.99998955,-9.76316400
456.49998953,-9.62229300
456.99998952,-9.73240600
457.49998950,-10.08920000
457.99998949,-10.14948000
458.49998948,-9.92249000
458.99998946,-9.69980200
459.49998945,-9.48388300
459.99998943,-9.49187900
460.49998942,-9.74101800
460.99998940,-9.79884200
461.49998939,-9.66904400
461.99998938,-9.60814500
462.49998936,-9.60814500
462.99998935,-9.66350800
463.49998933,-9.77116100
463.99998932,-9.82344900
464.49998931,-9.81237700
464.99998929,-9.81545200
465.49998928,-9.83698400
465.99998926,-9.72748500
466.49998925,-9.48941900
466.99998923,-9.48388300
467.49998922,-9.69980200
467.99998921,-9.91695300
468.49998919,-10.12242000
468.99998918,-10.16917000
469.49998916,-10.03937000
469.99998915,-9.98400600
470.49998914,-10.00615000
470.99998912,-9.95632300
471.49998911,-9.84867000
471.99998909,-9.79084600
472.49998908,-9.77977300
472.99998907,-9.88988600
473.49998905,-10.11688000
473.99998904,-10.17163000
474.49998902,-10.05290000
474.99998901,-9.94279000
475.49998899,-9.84559500
475.99998898,-9.79638200
476.49998897,-9.80745600
476.99998895,-9.80991600
477.49998894,-9.80991600
477.99998892,-9.80991600
478.49998891,-9.80991600
478.99998890,-9.80437900
479.49998888,-9.78284900
479.99998887,-9.88435100
480.49998885,-10.08920000
480.99998884,-10.25160000
481.49998882,-10.35987000
481.99998881,-10.30450000
482.49998880,-10.08858000
482.99998878,-9.92618100
483.49998877,-9.82898600
483.99998875,-9.84005800
484.49998874,-9.98092900
484.99998873,-9.92618100
485.49998871,-9.67704200
485.99998870,-9.67458200
486.49998868,-9.91264700
486.99998867,-10.02215000
487.49998866,-10.00062000
487.99998864,-9.99507800
488.49998863,-9.99507800
488.99998861,-10.00062000
489.49998860,-10.02215000
489.99998858,-9.91264700
490.49998857,-9.67458200
490.99998856,-9.67704200
491.49998854,-9.92618100
491.99998853,-9.98954200
492.49998851,-9.88127400
492.99998850,-9.71887300
493.49998849,-9.51402500
493.99998847,-9.40944900
494.49998846,-9.42052100
494.99998844,-9.47834600
495.49998843,-9.58599900
495.99998841,-9.63275100
496.49998840,-9.60014700
496.99998839,-9.70164800
497.49998837,-9.91818300
497.99998836,-10.02768000
498.49998834,-10.02768000
498.99998833,-9.91510800
499.49998832,-9.68811500
499.99998830,-9.63582600
500.49998829,-9.76562400
500.99998827,-9.82344900
501.49998826,-9.81237700
501.99998824,-9.80991600
502.49998823,-9.80991600
502.99998822,-9.81237700
503.49998820,-9.82344900
503.99998819,-9.76562400
504.49998817,-9.63582600
504.99998816,-9.69119100
505.49998815,-9.92864100
505.99998813,-9.98400600
506.49998812,-9.85420700
506.99998810,-9.79330700
507.49998809,-9.79330700
507.99998808,-9.85420700
508.49998806,-9.98400600
508.99998805,-9.92864100
509.49998803,-9.69119100
509.99998802,-9.62783000
510.49998800,-9.72502400
510.99998799,-9.94217400
511.49998798,-10.26636000
511.99998796,-10.36786000
512.49998795,-10.22699000
512.99998793,-10.16917000
513.49998792,-10.19131000
513.99998791,-10.14149000
514.49998789,-10.03383000
514.99998788,-9.98154500
515.49998786,-9.99261800
515.99998785,-9.99753900
516.49998783,-10.00861000
516.99998782,-9.95386200
517.49998781,-9.83452200
517.99998779,-9.83452200
518.49998778,-9.95386200
518.99998776,-10.00861000
519.49998775,-9.99753900
519.99998774,-9.98954200
520.49998772,-9.96801100
520.99998771,-10.08305000
521.49998769,-10.34264000
521.99998768,-10.24114000
522.49998767,-9.79822800
522.99998765,-9.52325200
523.49998764,-9.42605800
523.99998762,-9.54170700
524.49998761,-9.87696700
524.99998759,-10.03629000
525.49998758,-10.00308000
525.99998757,-9.99261800
526.49998755,-9.98154500
526.99998754,-10.03629000
527.49998752,-10.15563000
527.99998751,-10.15563000
528.49998750,-10.03629000
528.99998748,-9.98708100
529.49998747,-10.01968000
529.99998745,-9.91510800
530.49998744,-9.68811500
530.99998742,-9.63336600
531.49998741,-9.75209100
531.99998740,-9.86466500
532.49998738,-9.97293300
532.99998737,-9.97293300
533.49998735,-9.86466500
533.99998734,-9.76070300
534.49998733,-9.67396600
534.99998731,-9.57000400
535.49998730,-9.46173700
535.99998728,-9.45866100
536.49998727,-9.55585600
536.99998726,-9.71825700
537.49998724,-9.93417800
537.99998723,-9.98400600
538.49998721,-9.85420700
538.99998720,-9.79638200
539.49998718,-9.80745600
539.99998717,-9.81237700
540.49998716,-9.82344900
540.99998714,-9.76562400
541.49998713,-9.63582600
541.99998711,-9.68811500
542.49998710,-9.91510800
542.99998709,-10.02215000
543.49998707,-10.00062000
543.99998706,-9.99507800
544.49998704,-9.99507800
544.99998703,-9.99753900
545.49998701,-10.00861000
545.99998700,-9.95386200
546.49998699,-9.83452200
546.99998697,-9.83206100
547.49998696,-9.94033000
547.99998694,-10.04983000
548.49998693,-10.15810000
548.99998692,-10.15810000
549.49998690,-10.04983000
549.99998689,-9.94279000
550.49998687,-9.84559500
550.99998686,-9.80437900
551.49998685,-9.84805600
551.99998683,-9.68872900
552.49998682,-9.34301200
552.99998680,-9.29318400
553.49998679,-9.55278000
553.99998677,-9.60814500
554.49998676,-9.45620000
554.99998675,-9.50295300
555.49998673,-9.72994500
555.99998672,-9.84005800
556.49998670,-9.82898600
556.99998669,-9.76562400
557.49998668,-9.63582600
557.99998666,-9.68257800
558.49998665,-9.88804100
558.99998663,-10.10765000
559.49998662,-10.33464000
559.99998660,-10.27682000
560.49998659,-9.93110200
560.99998658,-9.77423700
561.49998656,-9.82898600
561.99998655,-9.72440900
562.49998653,-9.47588500
562.99998652,-9.52509800
563.49998651,-9.86035800
563.99998649,-10.08305000
564.49998648,-10.19070000
564.99998646,-10.07013000
565.49998645,-9.70226400
565.99998643,-9.70226400
566.49998642,-10.07013000
566.99998641,-10.19070000
567.49998639,-10.08305000
567.99998638,-9.85174700
568.49998636,-9.48449700
568.99998635,-9.58292300
569.49998634,-10.12365000
569.99998632,-10.56594000
570.49998631,-10.90121000
570.99998629,-10.77202000
571.49998628,-10.25406000
571.99998627,-9.18307000
572.49998625,-7.75898100
572.99998624,-6.37180100
573.49998622,-5.26082700
573.99998621,-4.58784400
574.49998619,-4.56815900
574.99998618,-4.19475800
575.49998617,-3.61220500
575.99998615,-3.10100900
576.49998614,-2.75590500
576.99998612,-2.47600900
577.49998611,-2.36835600
577.99998610,-1.98695900
578.49998608,-1.45853800
578.99998607,-0.69820370
579.49998605,0.14271650
579.99998604,0.90920280
580.49998602,1.45915400
580.99998601,1.75627400
581.49998600,1.72367100
581.99998598,1.55819400
582.49998597,1.26722400
582.99998595,0.97563980
583.49998594,0.77140750
583.99998593,0.20546260
584.49998591,-0.62561510
584.99998590,-1.06729800
585.49998588,-1.11097400
585.99998587,-0.46567420
586.49998586,0.81938970
586.99998584,1.53112700
587.49998583,1.63877900
587.99998581,1.05130400
588.49998580,-0.17962600
588.99998578,-1.19033000
589.49998577,-1.88053600
589.99998576,-1.90821800
590.49998574,-1.21678100
590.99998573,-0.70804620
591.49998571,-0.37340060
591.99998570,-0.59301170
592.49998569,-1.36072800
592.99998567,-1.83316900
593.49998566,-1.95066400
593.99998564,-2.14013300
594.49998563,-2.33452300
594.99998561,-2.44156000
595.49998560,-2.45263300
595.99998559,-2.32037400
596.49998557,-2.11614200
596.99998556,-1.38041300
597.49998554,-0.20361710
597.99998553,0.30204230
598.49998552,0.14087110
598.99998550,-0.79232280
599.49998549,-2.35789900
599.99998547,-3.86872500
600.49998546,-5.10949800
600.99998545,-5.71911900
601.49998543,-5.57886300
601.99998542,-5.00184500
602.49998540,-4.06311500
602.99998539,-2.91769200
603.49998537,-1.73043800
603.99998536,-1.09559500
604.49998535,-1.08513800
604.99998533,-1.74643200
605.49998532,-2.95460100
605.99998530,-4.56446800
606.49998529,-6.33489200
606.99998528,-7.43356300
607.49998526,-7.71407500
607.99998525,-7.11491100
608.49998523,-5.66806100
608.99998522,-4.45681600
609.49998520,-3.62635300
609.99998519,-3.21973400
610.49998518,-3.31692900
610.99998516,-3.89948300
611.49998515,-4.90342000
611.99998513,-5.73818900
612.49998512,-6.28814000
612.99998511,-6.53789300
613.49998509,-6.43024100
613.99998508,-6.04822800
614.49998506,-5.41092500
614.99998505,-5.07074300
615.49998503,-5.01599400
615.99998502,-5.57886300
616.49998501,-6.65846400
616.99998499,-7.76021100
617.49998498,-8.74200200
617.99998496,-9.17076700
618.49998495,-9.00898100
618.99998494,-8.12192400
619.49998492,-6.63201200
619.99998491,-5.30204200
620.49998489,-4.26550200
620.99998488,-4.30671700
621.49998487,-5.39677700
621.99998485,-6.97096400
622.49998484,-8.82751000
622.99998482,-10.19008000
623.49998481,-10.88091000
623.99998479,-10.56225000
624.49998478,-9.26673100
624.99998477,-7.68762300
625.49998475,-6.01439400
625.99998474,-5.02030000
626.49998472,-4.83636800
626.99998471,-5.46567400
627.49998470,-6.82517200
627.99998468,-8.38521200
628.49998467,-9.91818300
628.99998465,-10.96149000
629.49998464,-11.37180000
629.99998462,-10.84461000
630.49998461,-9.44143700
630.99998460,-7.96075300
631.49998458,-6.56803600
631.99998457,-5.99101800
632.49998455,-6.30413400
632.99998454,-7.25762800
633.49998453,-8.74692300
633.99998451,-10.00246000
634.49998450,-10.85445000
634.99998448,-11.10482000
635.49998447,-10.69451000
635.99998446,-9.90649500
636.49998444,-8.83796800
636.99998443,-7.90354300
637.49998441,-7.24594000
637.99998440,-6.98203700
638.49998438,-7.14320900
638.99998437,-7.87647600
639.49998436,-9.08587600
639.99998434,-10.03383000
640.49998433,-10.60593000
640.99998431,-10.65514000
641.49998430,-10.16917000
641.99998429,-9.32025100
642.49998427,-8.19758800
642.99998426,-7.56028500
643.49998424,-7.47416300
643.99998423,-7.90231300
644.49998421,-8.80905400
644.99998420,-9.64689900
645.49998419,-10.30573000
645.99998417,-10.66252000
646.49998416,-10.65207000
646.99998414,-10.33034000
647.49998413,-9.72563900
647.99998412,-9.19783400
648.49998410,-8.80967000
648.99998409,-8.70816900
649.49998407,-8.91363200
649.99998406,-9.27042300
650.49998405,-9.71272100
650.99998403,-10.33034000
651.49998402,-11.02116000
651.99998400,-11.44685000
652.49998399,-11.56558000
652.99998397,-11.20325000
653.49998396,-10.41523000
653.99998395,-9.57738700
654.49998393,-8.80044300
654.99998392,-8.38890300
655.49998390,-8.41043300
655.99998389,-8.73154400
656.49998388,-9.32517200
656.99998386,-9.90465100
657.49998385,-10.40170000
657.99998383,-10.54749000
658.49998382,-10.29835000
658.99998380,-10.07320000
659.49998379,-9.86774200
659.99998378,-9.82960000
660.49998376,-9.99200200
660.99998375,-9.89603700
661.49998373,-9.57185000
661.99998372,-9.35162400
662.49998371,-9.24397100
662.99998369,-9.35900500
663.49998368,-9.70533900
663.99998366,-9.80930000
664.49998365,-9.65797200
664.99998364,-9.65489600
665.49998362,-9.79576800
665.99998361,-9.73794300
666.49998359,-9.47834600
666.99998358,-9.52509800
667.49998356,-9.86035800
667.99998355,-10.07751000
668.49998354,-10.16363000
668.99998352,-10.15563000
669.49998351,-10.03629000
669.99998349,-9.99261800
670.49998348,-10.04675000
670.99998347,-9.85482300
671.49998345,-9.47711600
671.99998344,-9.00467500
672.49998342,-8.49716900
672.99998341,-8.28555600
673.49998339,-8.39382400
673.99998338,-8.69832600
674.49998337,-9.14062500
674.99998335,-9.80499500
675.49998334,-10.57148000
675.99998332,-11.20325000
676.49998331,-11.62463000
676.99998330,-11.46223000
677.49998328,-10.72835000
677.99998327,-10.04429000
678.49998325,-9.49372500
678.99998324,-9.07910800
679.49998322,-8.86318900
679.99998321,-9.07480300
680.49998320,-9.68996000
680.99998318,-10.26144000
681.49998317,-10.70374000
681.99998315,-11.11036000
682.49998314,-11.40133000
682.99998313,-11.45608000
683.49998311,-11.27276000
683.99998310,-10.84707000
684.49998308,-10.22084000
684.99998307,-9.91018600
685.49998306,-9.96493600
685.99998304,-10.02276000
686.49998303,-10.08735000
686.99998301,-10.35372000
687.49998300,-10.79663000
687.99998298,-10.90367000
688.49998297,-10.66621000
688.99998296,-10.44906000
689.49998294,-10.26575000
689.99998293,-10.10888000
690.49998291,-10.00062000
690.99998290,-10.05044000
691.49998289,-10.24483000
691.99998287,-10.51673000
692.49998286,-10.85199000
692.99998284,-10.85753000
693.49998283,-10.54380000
693.99998281,-10.17840000
694.49998280,-9.81176100
694.99998279,-9.45435500
695.49998277,-9.17445900
695.99998276,-9.01513200
696.49998274,-8.99360200
696.99998273,-9.26550100
697.49998272,-9.81606800
697.99998270,-10.03568000
698.49998269,-9.91695300
698.99998267,-9.64197800
699.49998266,-9.22121000
699.99998265,-9.01513200
700.49998263,-9.05880800
700.99998262,-9.06742100
701.49998260,-9.05634800
701.99998259,-9.09448700
702.49998257,-9.14800600
702.99998256,-9.45004800
703.49998255,-9.93540900
703.99998253,-10.40539000
704.49998252,-10.79417000
704.99998250,-10.94796000
705.49998249,-10.83969000
705.99998248,-10.57087000
706.49998246,-10.15994000
706.99998245,-9.88804100
707.49998243,-9.76931500
707.99998242,-9.98646600
708.49998240,-10.52657000
708.99998239,-10.84523000
709.49998238,-10.90982000
709.99998236,-10.90428000
710.49998235,-10.81816000
710.99998233,-10.60654000
711.49998232,-10.29343000
711.99998231,-10.13103000
712.49998229,-10.13103000
712.99998228,-10.30143000
713.49998226,-10.64715000
713.99998225,-10.69697000
714.49998224,-10.43738000
714.99998222,-10.38509000
715.49998221,-10.54749000
715.99998219,-10.44845000
716.49998218,-10.11319000
716.99998216,-9.95386200
717.49998215,-9.98708100
717.99998214,-9.98400600
718.49998212,-9.94033000
718.99998211,-10.14395000
719.49998209,-10.55426000
719.99998208,-10.87291000
720.49998207,-11.06668000
720.99998205,-11.06422000
721.49998204,-10.85937000
721.99998202,-10.59855000
722.49998201,-10.31742000
722.99998199,-10.05967000
723.49998198,-9.86527900
723.99998197,-9.82406500
724.49998195,-9.96493600
724.99998194,-9.96739700
725.49998192,-9.83759800
725.99998191,-9.84313500
726.49998190,-9.99446300
726.99998188,-9.89849900
727.49998187,-9.58538300
727.99998185,-9.31348400
728.49998184,-9.09756400
728.99998182,-9.15231200
729.49998181,-9.47650100
729.99998180,-9.74286400
730.49998178,-9.92618100
730.99998177,-10.03076000
731.49998175,-10.04183000
731.99998174,-9.89296200
732.49998173,-9.62352300
732.99998171,-9.20337100
733.49998170,-8.68479300
733.99998168,-8.45964500
734.49998167,-8.52423700
734.99998166,-9.04342900
735.49998164,-9.93971300
735.99998163,-10.72219000
736.49998161,-11.28322000
736.99998160,-11.53851000
737.49998158,-11.44131000
737.99998157,-11.02116000
738.49998156,-10.33034000
738.99998154,-9.70164800
739.49998153,-9.21567300
739.99998151,-9.07603400
740.49998150,-9.33501400
740.99998149,-9.49187900
741.49998147,-9.52325200
741.99998146,-9.83698400
742.49998144,-10.38816000
742.99998143,-10.55303000
743.49998141,-10.32603000
743.99998140,-9.99876900
744.49998139,-9.58845900
744.99998137,-9.38238100
745.49998136,-9.41498600
745.99998134,-9.47280900
746.49998133,-9.55893100
746.99998132,-9.71272100
747.49998130,-9.90711100
747.99998129,-10.06951000
748.49998127,-10.18824000
748.99998126,-10.08366000
749.49998125,-9.77054600
749.99998123,-9.49311000
750.49998122,-9.25504400
750.99998120,-9.40637200
751.49998119,-9.91387700
751.99998117,-10.43307000
752.49998116,-10.88583000
752.99998115,-11.31398000
753.49998113,-11.68184000
753.99998112,-11.37180000
754.49998110,-10.43184000
754.99998109,-9.63828700
755.49998108,-9.07726400
755.99998106,-8.83304600
756.49998105,-8.97391600
756.99998103,-9.18553100
757.49998102,-9.44389700
757.99998100,-9.85851400
758.49998099,-10.36602000
758.99998098,-10.62992000
759.49998096,-10.61885000
759.99998095,-10.40170000
760.49998093,-9.99138700
760.99998092,-9.68073300
761.49998091,-9.51956200
761.99998089,-9.36515700
762.49998088,-9.24643100
762.99998086,-9.34547200
763.49998085,-9.63705600
763.99998084,-10.00800000
764.49998082,-10.41831000
764.99998081,-10.57517000
765.49998079,-10.45583000
765.99998078,-10.24176000
766.49998076,-9.95017100
766.99998075,-9.68626900
767.49998074,-9.48080600
767.99998072,-9.48388300
768.49998071,-9.69980200
768.99998069,-9.91695300
769.49998068,-10.12242000
769.99998067,-10.17717000
770.49998065,-10.07997000
770.99998064,-9.86589500
771.49998062,-9.55278000
771.99998061,-9.39837600
772.49998059,-9.43159500
772.99998058,-9.43713000
773.49998057,-9.42605800
773.99998055,-9.47527000
774.49998054,-9.57246500
774.99998052,-9.67950200
775.49998051,-9.78777000
775.99998050,-9.78531000
776.49998048,-9.66596900
776.99998047,-9.61921700
777.49998045,-9.66289300
777.99998044,-9.50356700
778.49998043,-9.15784900
778.99998041,-9.09510300
779.49998040,-9.29995000
779.99998038,-9.62106200
780.49998037,-10.03137000
780.99998035,-10.23745000
781.49998034,-10.20485000
781.99998033,-10.14149000
782.49998031,-10.03383000
782.99998030,-9.97846900
783.49998028,-9.97846900
783.99998027,-10.02830000
784.49998026,-10.11442000
784.99998024,-10.27928000
785.49998023,-10.51735000
785.99998021,-10.46198000
786.49998020,-10.11626000
786.99998018,-9.94832700
787.49998017,-9.95939900
787.99998016,-10.07751000
788.49998014,-10.31557000
788.99998013,-10.31557000
789.49998011,-10.07751000
789.99998010,-9.96493600
790.49998009,-9.97600800
790.99998007,-10.03383000
791.49998006,-10.14149000
791.99998004,-10.19685000
792.49998003,-10.19685000
792.99998001,-10.14702000
793.49998000,-10.06090000
793.99997999,-9.90157400
794.49997997,-9.68565500
794.99997996,-9.63336600
795.49997994,-9.75209100
795.99997993,-9.86466500
796.49997992,-9.97293300
796.99997990,-9.97293300
797.49997989,-9.86466500
797.99997987,-9.76070300
798.49997986,-9.67396600
798.99997985,-9.57246500
799.49997983,-9.47527000
799.99997982,-9.42605800
800.49997980,-9.43713000
800.99997979,-9.44205100
801.49997977,-9.45312500
801.99997976,-9.40083700
802.49997975,-9.29318400
802.99997973,-9.23535900
803.49997972,-9.22428600
803.99997970,-9.33132400
804.49997969,-9.54785900
804.99997968,-9.64628400
805.49997966,-9.60322300
805.99997965,-9.70472400
806.49997963,-9.93171700
806.99997962,-9.98646600
807.49997960,-9.86774200
807.99997959,-9.75209100
808.49997958,-9.63336600
808.99997956,-9.69119100
809.49997955,-9.92864100
809.99997953,-9.97539300
810.49997952,-9.81299100
810.99997951,-9.90895600
811.49997949,-10.23314000
811.99997948,-10.44476000
812.49997946,-10.52042000
812.99997945,-10.56964000
813.49997944,-10.58071000
813.99997942,-10.47059000
814.49997941,-10.24360000
814.99997939,-10.18885000
815.49997938,-10.30758000
815.99997936,-10.41769000
816.49997935,-10.51489000
816.99997934,-10.56964000
817.49997932,-10.58071000
817.99997931,-10.47613000
818.49997929,-10.27128000
818.99997928,-10.10888000
819.49997927,-10.00062000
819.99997925,-10.05844000
820.49997924,-10.28543000
820.99997922,-10.39001000
821.49997921,-10.35741000
821.99997919,-10.41216000
822.49997918,-10.55303000
822.99997917,-10.45399000
823.49997915,-10.14087000
823.99997914,-9.87450700
824.49997912,-9.68011800
824.99997911,-9.64136300
825.49997910,-9.79330700
825.99997908,-9.74347900
826.49997907,-9.50602800
826.99997905,-9.45066500
827.49997904,-9.58046200
827.99997903,-9.63582600
828.49997901,-9.61368100
828.99997900,-9.67150600
829.49997898,-9.81237700
829.99997897,-9.70533900
830.49997895,-9.35900500
830.99997894,-9.25196800
831.49997893,-9.39283900
831.99997891,-9.44512700
832.49997890,-9.40145100
832.99997888,-9.56077800
833.49997887,-9.90649500
833.99997886,-9.96186000
834.49997884,-9.72379400
834.99997883,-9.55339500
835.49997881,-9.44512700
835.99997880,-9.50049200
836.49997878,-9.71641300
836.99997877,-9.87327700
837.49997876,-9.94832700
837.99997874,-10.04983000
838.49997873,-10.15810000
838.99997871,-10.15563000
839.49997870,-10.03629000
839.99997869,-9.98154500
840.49997867,-9.99261800
840.99997866,-10.00062000
841.49997864,-10.02215000
841.99997863,-9.91264700
842.49997861,-9.67458200
842.99997860,-9.66596900
843.49997859,-9.87143200
843.99997857,-10.13779000
844.49997856,-10.44045000
844.99997854,-10.59424000
845.49997853,-10.57271000
845.99997852,-10.51181000
846.49997850,-10.40416000
846.99997849,-10.34879000
847.49997847,-10.34879000
847.99997846,-10.40416000
848.49997845,-10.51181000
848.99997843,-10.57271000
849.49997842,-10.59424000
849.99997840,-10.43738000
850.49997839,-10.12426000
850.99997837,-9.90711100
851.49997836,-9.79945900
851.99997835,-9.91449300
852.49997833,-10.26083000
852.99997832,-10.36786000
853.49997830,-10.22699000
853.99997829,-10.16917000
854.49997828,-10.19131000
854.99997826,-10.14149000
855.49997825,-10.03383000
855.99997823,-9.98400600
856.49997822,-10.00615000
856.99997820,-9.96739700
857.49997819,-9.90280400
857.99997818,-9.64197800
858.49997816,-9.22121000
858.99997815,-9.00713500
859.49997813,-9.01820900
859.99997812,-9.18799200
860.49997811,-9.52263700
860.99997809,-9.62721400
861.49997808,-9.48634300
861.99997806,-9.42605800
862.49997805,-9.43713000
862.99997804,-9.44205100
863.49997802,-9.45312500
863.99997801,-9.38976300
864.49997799,-9.23843500
864.99997798,-9.39468400
865.49997796,-9.83821400
865.99997795,-10.05229000
866.49997794,-10.01968000
866.99997792,-9.95386200
867.49997791,-9.83452200
867.99997789,-9.84559500
868.49997788,-10.00861000
868.99997787,-9.84374900
869.49997785,-9.35654400
869.99997784,-9.35100800
870.49997782,-9.81606800
870.99997781,-10.08797000
871.49997779,-10.15256000
871.99997778,-10.19685000
872.49997777,-10.19685000
872.99997775,-10.15010000
873.49997774,-10.07443000
873.99997772,-9.86035800
874.49997771,-9.52509800
874.99997770,-9.47280900
875.49997768,-9.71087600
875.99997767,-9.87020200
876.49997765,-9.93479300
876.99997764,-10.08858000
877.49997763,-10.30450000
877.99997761,-10.35987000
878.49997760,-10.25160000
878.99997758,-10.08920000
879.49997757,-9.88435100
879.99997755,-9.77977300
880.49997754,-9.79084600
880.99997753,-9.84867000
881.49997751,-9.95632300
881.99997750,-10.00308000
882.49997748,-9.97047100
882.99997747,-10.07505000
883.49997746,-10.30204000
883.99997744,-10.36233000
884.49997743,-10.26513000
884.99997741,-10.04552000
885.49997740,-9.71026000
885.99997738,-9.66104800
886.49997737,-9.90957200
886.99997736,-10.02215000
887.49997734,-10.00062000
887.99997733,-9.99507800
888.49997731,-9.99507800
888.99997730,-10.00062000
889.49997729,-10.02215000
889.99997727,-9.92372000
890.49997726,-9.72933000
890.99997724,-9.51464100
891.49997723,-9.29871900
891.99997722,-9.29871900
892.49997720,-9.51464100
892.99997719,-9.72625400
893.49997717,-9.90957200
893.99997716,-10.06398000
894.49997714,-10.16117000
894.99997713,-10.15563000
895.49997712,-10.03629000
895.99997710,-9.98154500
896.49997709,-9.99261800
896.99997707,-10.00062000
897.49997706,-10.02215000
897.99997705,-9.91264700
898.49997703,-9.67458200
898.99997702,-9.67150600
899.49997700,-9.89849900
899.99997699,-10.06398000
900.49997697,-10.16117000
900.99997696,-10.15810000
901.49997695,-10.04983000
901.99997693,-9.94586600
902.49997692,-9.85912800
