Time,Channel B
(ns),(mV)

-100.99999470,-9.85974400
-100.49999472,-10.01107000
-99.99999473,-9.84928600
-99.49999474,-9.38422800
-98.99999476,-9.27165300
-98.49999477,-9.50910400
-97.99999479,-9.72933000
-97.49999480,-9.92372000
-96.99999481,-10.02522000
-96.49999483,-10.01415000
-95.99999484,-9.95386200
-95.49999486,-9.83452200
-94.99999487,-9.83452200
-94.49999488,-9.95386200
-93.99999490,-10.00861000
-93.49999491,-9.99753900
-92.99999493,-9.99753900
-92.49999494,-10.00861000
-91.99999496,-9.95386200
-91.49999497,-9.83452200
-90.99999498,-9.83206100
-90.49999500,-9.94033000
-89.99999501,-10.04983000
-89.49999503,-10.15810000
-88.99999504,-10.15810000
-88.49999505,-10.04983000
-87.99999507,-9.94279000
-87.49999508,-9.84559500
-86.99999510,-9.79638200
-86.49999511,-9.80745600
-85.99999513,-9.80745600
-85.49999514,-9.79638200
-84.99999515,-9.85113100
-84.49999517,-9.97047100
-83.99999518,-9.97047100
-83.49999520,-9.85113100
-82.99999521,-9.79330700
-82.49999522,-9.79330700
-81.99999524,-9.85420700
-81.49999525,-9.98400600
-80.99999527,-9.93171700
-80.49999528,-9.70472400
-79.99999529,-9.59461100
-79.49999531,-9.60568300
-78.99999532,-9.66043300
-78.49999534,-9.75762700
-77.99999535,-9.86220500
-77.49999537,-9.95939900
-76.99999538,-10.01415000
-76.49999539,-10.02522000
-75.99999541,-9.91510800
-75.49999542,-9.68811500
-74.99999544,-9.63336600
-74.49999545,-9.75209100
-73.99999546,-9.86774200
-73.49999548,-9.98646600
-72.99999549,-9.93171700
-72.49999551,-9.70472400
-71.99999552,-9.59768700
-71.49999554,-9.61921700
-70.99999555,-9.61921700
-70.49999556,-9.59768700
-69.99999558,-9.70164800
-69.49999559,-9.91818300
-68.99999561,-10.03076000
-68.49999562,-10.04183000
-67.99999563,-9.87389300
-67.49999565,-9.52817300
-66.99999566,-9.47280900
-66.49999568,-9.71087600
-65.99999569,-9.87881400
-65.49999571,-9.97600800
-64.99999572,-9.97293300
-64.49999573,-9.86466500
-63.99999575,-9.75516700
-63.49999576,-9.64689900
-62.99999578,-9.64689900
-62.49999579,-9.75516700
-61.99999580,-9.86220500
-61.49999582,-9.95939900
-60.99999583,-10.01415000
-60.49999585,-10.02522000
-59.99999586,-9.91510800
-59.49999587,-9.68811500
-58.99999589,-9.63336600
-58.49999590,-9.75209100
-57.99999592,-9.86774200
-57.49999593,-9.98646600
-56.99999595,-9.92864100
-56.49999596,-9.69119100
-55.99999597,-9.63582600
-55.49999599,-9.76562400
-54.99999600,-9.82344900
-54.49999602,-9.81237700
-53.99999603,-9.80745600
-53.49999604,-9.79638200
-52.99999606,-9.85420700
-52.49999607,-9.98400600
-51.99999609,-9.93171700
-51.49999610,-9.70472400
-50.99999612,-9.59768700
-50.49999613,-9.61921700
-49.99999614,-9.62229300
-49.49999616,-9.61122000
-48.99999617,-9.66350800
-48.49999619,-9.77116100
-47.99999620,-9.82898600
-47.49999621,-9.84005800
-46.99999623,-9.72440900
-46.49999624,-9.47588500
-45.99999626,-9.52817300
-45.49999627,-9.87389300
-44.99999628,-10.03875000
-44.49999630,-10.01722000
-43.99999631,-9.95386200
-43.49999633,-9.83452200
-42.99999634,-9.83452200
-42.49999636,-9.95386200
-41.99999637,-10.01415000
-41.49999638,-10.02522000
-40.99999640,-9.91818300
-40.49999641,-9.70164800
-39.99999643,-9.59768700
-39.49999644,-9.61921700
-38.99999645,-9.61921700
-38.49999647,-9.59768700
-37.99999648,-9.69918700
-37.49999650,-9.90403500
-36.99999651,-10.06951000
-36.49999653,-10.18824000
-35.99999654,-10.07566000
-35.49999655,-9.72933000
-34.99999657,-9.61675600
-34.49999658,-9.73548200
-33.99999660,-9.90649500
-33.49999661,-10.13349000
-32.99999662,-10.13349000
-32.49999664,-9.90649500
-31.99999665,-9.74101800
-31.49999667,-9.64382400
-30.99999668,-9.64936000
-30.49999669,-9.76870100
-29.99999671,-9.81791200
-29.49999672,-9.78531000
-28.99999674,-9.88988600
-28.49999675,-10.11688000
-27.99999677,-10.16917000
-27.49999678,-10.03937000
-26.99999679,-9.98154500
-26.49999681,-9.99261800
-25.99999682,-9.99507800
-25.49999684,-9.99507800
-24.99999685,-9.99753900
-24.49999686,-10.00861000
-23.99999688,-9.95632300
-23.49999689,-9.84867000
-22.99999691,-9.79884200
-22.49999692,-9.82098900
-21.99999694,-9.76562400
-21.49999695,-9.63582600
-20.99999696,-9.69365100
-20.49999698,-9.94279000
-19.99999699,-9.94279000
-19.49999701,-9.69365100
-18.99999702,-9.63336600
-18.49999703,-9.75209100
-17.99999705,-9.86220500
-17.49999706,-9.95939900
-16.99999708,-10.01415000
-16.49999709,-10.02522000
-15.99999710,-9.91264700
-15.49999712,-9.67458200
-14.99999713,-9.67458200
-14.49999715,-9.91264700
-13.99999716,-10.02522000
-13.49999718,-10.01415000
-12.99999719,-9.95939900
-12.49999720,-9.86220500
-11.99999722,-9.75762700
-11.49999723,-9.66043300
-10.99999725,-9.60814500
-10.49999726,-9.60814500
-9.99999727,-9.66043300
-9.49999729,-9.75762700
-8.99999730,-9.86220500
-8.49999732,-9.95939900
-7.99999733,-10.01415000
-7.49999735,-10.02522000
-6.99999736,-9.91818300
-6.49999737,-9.70164800
-5.99999739,-9.59215000
-5.49999740,-9.59215000
-4.99999742,-9.70718500
-4.49999743,-9.94525100
-3.99999744,-9.94279000
-3.49999746,-9.69365100
-2.99999747,-9.63336600
-2.49999749,-9.75209100
-1.99999750,-9.86220500
-1.49999752,-9.95939900
-0.99999753,-10.01169000
-0.49999754,-10.01169000
0.00000244,-9.95632300
0.50000243,-9.84867000
1.00000241,-9.79330700
1.50000240,-9.79330700
2.00000239,-9.84867000
2.50000237,-9.95632300
3.00000236,-10.01415000
3.50000234,-10.02522000
4.00000233,-9.91818300
4.50000232,-9.70164800
5.00000230,-9.59461100
5.50000229,-9.60568300
6.00000227,-9.66043300
6.50000226,-9.75762700
7.00000224,-9.86774200
7.50000223,-9.98646600
8.00000222,-9.93171700
8.50000220,-9.70472400
9.00000219,-9.59768700
9.50000217,-9.61921700
10.00000216,-9.61921700
10.50000215,-9.59768700
11.00000213,-9.70472400
11.50000212,-9.93171700
12.00000210,-9.98400600
12.50000209,-9.85420700
13.00000207,-9.79884200
13.50000206,-9.82098900
14.00000205,-9.76870100
14.50000203,-9.64936000
15.00000202,-9.64936000
15.50000200,-9.76870100
16.00000199,-9.82098900
16.50000198,-9.79884200
17.00000196,-9.85113100
17.50000195,-9.97047100
18.00000193,-9.96739700
18.50000192,-9.83759800
19.00000191,-9.83452200
19.50000189,-9.95386200
20.00000188,-10.01169000
20.50000186,-10.01169000
21.00000185,-9.95386200
21.50000183,-9.83452200
22.00000182,-9.83759800
22.50000181,-9.96739700
23.00000179,-9.97047100
23.50000178,-9.85113100
24.00000176,-9.79884200
24.50000175,-9.82098900
25.00000174,-9.76870100
25.50000172,-9.64936000
26.00000171,-9.64936000
26.50000169,-9.76870100
27.00000168,-9.82652600
27.50000166,-9.82652600
28.00000165,-9.77423700
28.50000164,-9.67704200
29.00000162,-9.56446800
29.50000161,-9.43466900
30.00000159,-9.54170700
30.50000158,-9.87696700
31.00000157,-10.03629000
31.50000155,-10.00308000
32.00000154,-9.99507800
32.50000152,-9.99507800
33.00000151,-9.99753900
33.50000150,-10.00861000
34.00000148,-9.95386200
34.50000147,-9.83452200
35.00000145,-9.83759800
35.50000144,-9.96739700
36.00000142,-9.97047100
36.50000141,-9.85113100
37.00000140,-9.79330700
37.50000138,-9.79330700
38.00000137,-9.85420700
38.50000135,-9.98400600
39.00000134,-9.93171700
39.50000133,-9.70472400
40.00000131,-9.59768700
40.50000130,-9.61921700
41.00000128,-9.62229300
41.50000127,-9.61122000
42.00000125,-9.66043300
42.50000124,-9.75762700
43.00000123,-9.86466500
43.50000121,-9.97293300
44.00000120,-9.97047100
44.50000118,-9.85113100
45.00000117,-9.79330700
45.50000116,-9.79330700
46.00000114,-9.85420700
46.50000113,-9.98400600
47.00000111,-9.93171700
47.50000110,-9.70472400
48.00000108,-9.59461100
48.50000107,-9.60568300
49.00000106,-9.66043300
49.50000104,-9.75762700
50.00000103,-9.86220500
50.50000101,-9.95939900
51.00000100,-10.01415000
51.50000099,-10.02522000
52.00000097,-9.91510800
52.50000096,-9.68811500
53.00000094,-9.63336600
53.50000093,-9.75209100
54.00000092,-9.86466500
54.50000090,-9.97293300
55.00000089,-9.97047100
55.50000087,-9.85113100
56.00000086,-9.79884200
56.50000084,-9.82098900
57.00000083,-9.77116100
57.50000082,-9.66350800
58.00000080,-9.60568300
58.50000079,-9.59461100
59.00000077,-9.70718500
59.50000076,-9.94525100
60.00000075,-9.94279000
60.50000073,-9.69365100
61.00000072,-9.63336600
61.50000070,-9.75209100
62.00000069,-9.86220500
62.50000067,-9.95939900
63.00000066,-10.01169000
63.50000065,-10.01169000
64.00000063,-9.95632300
64.50000062,-9.84867000
65.00000060,-9.79330700
65.50000059,-9.79330700
66.00000058,-9.84867000
66.50000056,-9.95632300
67.00000055,-10.01415000
67.50000053,-10.02522000
68.00000052,-9.91510800
68.50000051,-9.68811500
69.00000049,-9.63582600
69.50000048,-9.76562400
70.00000046,-9.82652600
70.50000045,-9.82652600
71.00000043,-9.76870100
71.50000042,-9.64936000
72.00000041,-9.65489600
72.50000039,-9.79576800
73.00000038,-9.74347900
73.50000036,-9.50602800
74.00000035,-9.44512700
74.50000034,-9.55339500
75.00000032,-9.72133400
75.50000031,-9.94832700
76.00000029,-9.94525100
76.50000028,-9.70718500
77.00000026,-9.59461100
77.50000025,-9.60568300
78.00000024,-9.66043300
78.50000022,-9.75762700
79.00000021,-9.86466500
79.50000019,-9.97293300
80.00000018,-9.97047100
80.50000017,-9.85113100
81.00000015,-9.79330700
81.50000014,-9.79330700
82.00000012,-9.84867000
82.50000011,-9.95632300
83.00000010,-10.01415000
83.50000008,-10.02522000
84.00000007,-9.91510800
84.50000005,-9.68811500
85.00000004,-9.63336600
85.50000002,-9.75209100
86.00000001,-9.86220500
86.50000000,-9.95939900
86.99999998,-10.01169000
87.49999997,-10.01169000
87.99999995,-9.95632300
88.49999994,-9.84867000
88.99999993,-9.79884200
89.49999991,-9.82098900
89.99999990,-9.76870100
90.49999988,-9.64936000
90.99999987,-9.65243500
91.49999985,-9.78223300
91.99999984,-9.78223300
92.49999983,-9.65243500
92.99999981,-9.64936000
93.49999980,-9.76870100
93.99999978,-9.82344900
94.49999977,-9.81237700
94.99999976,-9.80745600
95.49999974,-9.79638200
95.99999973,-9.85113100
96.49999971,-9.97047100
96.99999970,-9.96739700
97.49999969,-9.83759800
97.99999967,-9.83759800
98.49999966,-9.96739700
98.99999964,-9.97047100
99.49999963,-9.85113100
99.99999961,-9.79638200
100.49999960,-9.80745600
100.99999959,-9.80745600
101.49999957,-9.79638200
101.99999956,-9.85420700
102.49999954,-9.98400600
102.99999953,-9.93171700
103.49999952,-9.70472400
103.99999950,-9.59768700
104.49999949,-9.61921700
104.99999947,-9.62475400
105.49999946,-9.62475400
105.99999944,-9.61921700
106.49999943,-9.59768700
106.99999942,-9.71026000
107.49999940,-9.95878400
107.99999939,-9.90096000
108.49999937,-9.53371000
108.99999936,-9.47588500
109.49999935,-9.72440900
109.99999933,-9.83452200
110.49999932,-9.80191900
110.99999930,-9.85420700
111.49999929,-9.98400600
111.99999927,-9.92864100
112.49999926,-9.69119100
112.99999925,-9.63336600
113.49999923,-9.75209100
113.99999922,-9.86220500
114.49999920,-9.95939900
114.99999919,-10.01415000
115.49999918,-10.02522000
115.99999916,-9.91510800
116.49999915,-9.68811500
116.99999913,-9.63336600
117.49999912,-9.75209100
117.99999911,-9.87020200
118.49999909,-9.99999900
118.99999908,-9.89050200
119.49999906,-9.54416800
119.99999905,-9.43466900
120.49999903,-9.56446800
120.99999902,-9.67950200
121.49999901,-9.78777000
121.99999899,-9.78223300
122.49999898,-9.65243500
122.99999896,-9.64936000
123.49999895,-9.76870100
123.99999894,-9.82344900
124.49999892,-9.81237700
124.99999891,-9.80745600
125.49999889,-9.79638200
125.99999888,-9.84867000
126.49999886,-9.95632300
126.99999885,-10.01415000
127.49999884,-10.02522000
127.99999882,-9.91818300
128.49999881,-9.70164800
128.99999879,-9.59461100
129.49999878,-9.60568300
129.99999877,-9.66043300
130.49999875,-9.75762700
130.99999874,-9.87020200
131.49999872,-9.99999900
131.99999871,-9.88742500
132.49999870,-9.53063400
132.99999868,-9.47280900
133.49999867,-9.71087600
133.99999865,-9.87881400
134.49999864,-9.97600800
134.99999862,-9.97600800
135.49999861,-9.87881400
135.99999860,-9.71641300
136.49999858,-9.50049200
136.99999857,-9.44512700
137.49999855,-9.55339500
137.99999854,-9.71579600
138.49999853,-9.92064400
138.99999851,-10.02522000
139.49999850,-10.01415000
139.99999848,-9.95632300
140.49999847,-9.84867000
140.99999845,-9.79330700
141.49999844,-9.79330700
141.99999843,-9.84867000
142.49999841,-9.95632300
142.99999840,-10.00861000
143.49999838,-9.99753900
143.99999837,-9.99507800
144.49999836,-9.99507800
144.99999834,-9.99507800
145.49999833,-9.99507800
145.99999831,-9.99507800
146.49999830,-9.99507800
146.99999829,-10.00062000
147.49999827,-10.02215000
147.99999826,-9.91510800
148.49999824,-9.68811500
148.99999823,-9.63336600
149.49999821,-9.75209100
149.99999820,-9.86774200
150.49999819,-9.98646600
150.99999817,-9.92864100
151.49999816,-9.69119100
151.99999814,-9.63336600
152.49999813,-9.75209100
152.99999812,-9.86466500
153.49999810,-9.97293300
153.99999809,-9.97047100
154.49999807,-9.85113100
154.99999806,-9.79884200
155.49999804,-9.82098900
155.99999803,-9.76870100
156.49999802,-9.64936000
156.99999800,-9.64382400
157.49999799,-9.74101800
157.99999797,-9.90342000
158.49999796,-10.11934000
158.99999795,-10.16917000
159.49999793,-10.03937000
159.99999792,-9.98154500
160.49999790,-9.99261800
160.99999789,-9.99753900
161.49999787,-10.00861000
161.99999786,-9.95632300
162.49999785,-9.84867000
162.99999783,-9.79884200
163.49999782,-9.82098900
163.99999780,-9.76870100
164.49999779,-9.64936000
164.99999778,-9.64689900
165.49999776,-9.75516700
165.99999775,-9.86774200
166.49999773,-9.98646600
166.99999772,-9.92618100
167.49999771,-9.67704200
167.99999769,-9.67704200
168.49999768,-9.92618100
168.99999766,-9.98646600
169.49999765,-9.86774200
169.99999763,-9.75516700
170.49999762,-9.64689900
170.99999761,-9.64936000
171.49999759,-9.76870100
171.99999758,-9.82344900
172.49999756,-9.81237700
172.99999755,-9.81237700
173.49999754,-9.82344900
173.99999752,-9.77116100
174.49999751,-9.66350800
174.99999749,-9.60814500
175.49999748,-9.60814500
175.99999746,-9.66350800
176.49999745,-9.77116100
176.99999744,-9.82098900
177.49999742,-9.79884200
177.99999741,-9.84867000
178.49999739,-9.95632300
178.99999738,-10.01722000
179.49999737,-10.03875000
179.99999735,-9.87696700
180.49999734,-9.54170700
180.99999732,-9.42913300
181.49999731,-9.53678600
181.99999730,-9.76254900
182.49999728,-10.10827000
182.99999727,-10.10581000
183.49999725,-9.74840100
183.99999724,-9.58353800
184.49999722,-9.61675600
184.99999721,-9.61921700
185.49999720,-9.59768700
185.99999718,-9.70164800
186.49999717,-9.91818300
186.99999715,-10.02768000
187.49999714,-10.02768000
187.99999713,-9.91510800
188.49999711,-9.68811500
188.99999710,-9.63336600
189.49999708,-9.75209100
189.99999707,-9.86774200
190.49999705,-9.98646600
190.99999704,-9.92618100
191.49999703,-9.67704200
191.99999701,-9.67704200
192.49999700,-9.92618100
192.99999698,-9.98092900
193.49999697,-9.84005800
193.99999696,-9.83452200
194.49999694,-9.95386200
194.99999693,-10.01169000
195.49999691,-10.01169000
195.99999690,-9.95632300
196.49999689,-9.84867000
196.99999687,-9.79884200
197.49999686,-9.82098900
197.99999684,-9.77116100
198.49999683,-9.66350800
198.99999681,-9.60814500
199.49999680,-9.60814500
199.99999679,-9.66904400
200.49999677,-9.79884200
200.99999676,-9.74347900
201.49999674,-9.50602800
201.99999673,-9.44512700
202.49999672,-9.55339500
202.99999670,-9.72133400
203.49999669,-9.94832700
203.99999667,-9.94279000
204.49999666,-9.69365100
204.99999664,-9.63336600
205.49999663,-9.75209100
205.99999662,-9.86774200
206.49999660,-9.98646600
206.99999659,-9.93171700
207.49999657,-9.70472400
207.99999656,-9.59461100
208.49999655,-9.60568300
208.99999653,-9.66350800
209.49999652,-9.77116100
209.99999650,-9.82344900
210.49999649,-9.81237700
210.99999648,-9.81791200
211.49999646,-9.85113100
211.99999645,-9.68872900
212.49999643,-9.34301200
212.99999642,-9.28764700
213.49999640,-9.52571300
213.99999639,-9.69365100
214.49999638,-9.79084600
214.99999636,-9.78223300
215.49999635,-9.65243500
215.99999633,-9.64936000
216.49999632,-9.76870100
216.99999631,-9.82344900
217.49999629,-9.81237700
217.99999628,-9.80991600
218.49999626,-9.80991600
218.99999625,-9.81237700
219.49999623,-9.82344900
219.99999622,-9.76870100
220.49999621,-9.64936000
220.99999619,-9.64689900
221.49999618,-9.75516700
221.99999616,-9.86774200
222.49999615,-9.98646600
222.99999614,-9.93171700
223.49999612,-9.70472400
223.99999611,-9.59461100
224.49999609,-9.60568300
224.99999608,-9.66043300
225.49999606,-9.75762700
225.99999605,-9.86466500
226.49999604,-9.97293300
226.99999602,-9.97293300
227.49999601,-9.86466500
227.99999599,-9.75209100
228.49999598,-9.63336600
228.99999597,-9.68811500
229.49999595,-9.91510800
229.99999594,-10.02768000
230.49999592,-10.02768000
230.99999591,-9.91818300
231.49999590,-9.70164800
231.99999588,-9.59461100
232.49999587,-9.60568300
232.99999585,-9.66350800
233.49999584,-9.77116100
233.99999582,-9.81791200
234.49999581,-9.78531000
234.99999580,-9.89542300
235.49999578,-10.14395000
235.99999577,-10.08920000
236.49999575,-9.73240600
236.99999574,-9.62229300
237.49999573,-9.76316400
237.99999571,-9.82652600
238.49999570,-9.82652600
238.99999568,-9.76870100
239.49999567,-9.64936000
239.99999565,-9.64382400
240.49999564,-9.74101800
240.99999563,-9.90649500
241.49999561,-10.13349000
241.99999560,-10.13041000
242.49999558,-9.89234600
242.99999557,-9.78531000
243.49999556,-9.81791200
243.99999554,-9.76870100
244.49999553,-9.64936000
244.99999551,-9.64382400
245.49999550,-9.74101800
245.99999549,-9.90342000
246.49999547,-10.11934000
246.99999546,-10.16609000
247.49999544,-10.02522000
247.99999543,-10.02522000
248.49999541,-10.16609000
248.99999540,-10.11380000
249.49999539,-9.87635300
249.99999537,-9.82098900
250.49999536,-9.95078800
250.99999534,-10.01415000
251.49999533,-10.02522000
251.99999532,-9.91510800
252.49999530,-9.68811500
252.99999529,-9.63336600
253.49999527,-9.75209100
253.99999526,-9.86220500
254.49999524,-9.95939900
254.99999523,-10.01415000
255.49999522,-10.02522000
255.99999520,-9.91510800
256.49999519,-9.68811500
256.99999517,-9.63582600
257.49999516,-9.76562400
257.99999515,-9.82098900
258.49999513,-9.79884200
258.99999512,-9.85113100
259.49999510,-9.97047100
259.99999509,-9.97047100
260.49999508,-9.85113100
260.99999506,-9.79084600
261.49999505,-9.77977300
261.99999503,-9.89234600
262.49999502,-10.13041000
262.99999500,-10.13041000
263.49999499,-9.89234600
263.99999498,-9.78531000
264.49999496,-9.81791200
264.99999495,-9.77116100
265.49999493,-9.66350800
265.99999492,-9.60568300
266.49999491,-9.59461100
266.99999489,-9.71026000
267.49999488,-9.95878400
267.99999486,-9.90403500
268.49999485,-9.54724300
268.99999483,-9.43159500
269.49999482,-9.55032000
269.99999481,-9.72133400
270.49999479,-9.94832700
270.99999478,-9.93971300
271.49999476,-9.68011800
271.99999475,-9.67458200
272.49999474,-9.91264700
272.99999472,-10.02215000
273.49999471,-10.00062000
273.99999469,-9.99507800
274.49999468,-9.99507800
274.99999466,-10.00062000
275.49999465,-10.02215000
275.99999464,-9.91818300
276.49999462,-9.70164800
276.99999461,-9.59215000
277.49999459,-9.59215000
277.99999458,-9.70718500
278.49999457,-9.94525100
278.99999455,-9.93971300
279.49999454,-9.68011800
279.99999452,-9.67704200
280.49999451,-9.92618100
280.99999450,-9.98400600
281.49999448,-9.85420700
281.99999447,-9.79330700
282.49999445,-9.79330700
282.99999444,-9.85666800
283.49999442,-9.99753900
283.99999441,-9.88742500
284.49999440,-9.53063400
284.99999438,-9.47280900
285.49999437,-9.71087600
285.99999435,-9.87881400
286.49999434,-9.97600800
286.99999433,-9.97293300
287.49999431,-9.86466500
287.99999430,-9.75516700
288.49999428,-9.64689900
288.99999427,-9.64382400
289.49999425,-9.74101800
289.99999424,-9.90342000
290.49999423,-10.11934000
290.99999421,-10.17163000
291.49999420,-10.05290000
291.99999418,-9.94033000
292.49999417,-9.83206100
292.99999416,-9.83452200
293.49999414,-9.95386200
293.99999413,-10.01722000
294.49999411,-10.03875000
294.99999410,-9.87696700
295.49999409,-9.54170700
295.99999407,-9.43713000
296.49999406,-9.57800100
296.99999404,-9.63582600
297.49999403,-9.61368100
297.99999401,-9.66043300
298.49999400,-9.75762700
298.99999399,-9.86774200
299.49999397,-9.98646600
299.99999396,-9.93171700
300.49999394,-9.70472400
300.99999393,-9.59215000
301.49999392,-9.59215000
301.99999390,-9.70472400
302.49999389,-9.93171700
302.99999387,-9.98646600
303.49999386,-9.86774200
303.99999384,-9.75209100
304.49999383,-9.63336600
304.99999382,-9.68811500
305.49999380,-9.91510800
305.99999379,-10.02215000
306.49999377,-10.00062000
306.99999376,-10.00062000
307.49999375,-10.02215000
307.99999373,-9.91510800
308.49999372,-9.68811500
308.99999370,-9.63336600
309.49999369,-9.75209100
309.99999368,-9.86220500
310.49999366,-9.95939900
310.99999365,-10.01415000
311.49999363,-10.02522000
311.99999362,-9.91818300
312.49999360,-9.70164800
312.99999359,-9.59768700
313.49999358,-9.61921700
313.99999356,-9.62229300
314.49999355,-9.61122000
314.99999353,-9.67150600
315.49999352,-9.81237700
315.99999351,-9.70226400
316.49999349,-9.34547200
316.99999348,-9.28764700
317.49999346,-9.52571300
317.99999345,-9.68811500
318.49999343,-9.76316400
318.99999342,-9.86220500
319.49999341,-9.95939900
319.99999339,-10.01169000
320.49999338,-10.01169000
320.99999336,-9.95386200
321.49999335,-9.83452200
321.99999334,-9.83452200
322.49999332,-9.95386200
322.99999331,-10.01415000
323.49999329,-10.02522000
323.99999328,-9.91510800
324.49999327,-9.68811500
324.99999325,-9.63336600
325.49999324,-9.75209100
325.99999322,-9.87020200
326.49999321,-9.99999900
326.99999319,-9.89050200
327.49999318,-9.54416800
327.99999317,-9.43466900
328.49999315,-9.56446800
328.99999314,-9.67396600
329.49999312,-9.76070300
329.99999311,-9.86220500
330.49999310,-9.95939900
330.99999308,-10.01415000
331.49999307,-10.02522000
331.99999305,-9.91510800
332.49999304,-9.68811500
332.99999302,-9.63336600
333.49999301,-9.75209100
333.99999300,-9.86220500
334.49999298,-9.95939900
334.99999297,-10.01415000
335.49999295,-10.02522000
335.99999294,-9.91818300
336.49999293,-9.70164800
336.99999291,-9.59215000
337.49999290,-9.59215000
337.99999288,-9.70164800
338.49999287,-9.91818300
338.99999285,-10.02768000
339.49999284,-10.02768000
339.99999283,-9.91510800
340.49999281,-9.68811500
340.99999280,-9.63890200
341.49999278,-9.77977300
341.99999277,-9.78531000
342.49999276,-9.66596900
342.99999274,-9.60814500
343.49999273,-9.60814500
343.99999271,-9.66350800
344.49999270,-9.77116100
344.99999269,-9.82652600
345.49999267,-9.82652600
345.99999266,-9.76562400
346.49999264,-9.63582600
346.99999263,-9.69365100
347.49999261,-9.94279000
347.99999260,-9.94279000
348.49999259,-9.69365100
348.99999257,-9.63336600
349.49999256,-9.75209100
349.99999254,-9.86466500
350.49999253,-9.97293300
350.99999252,-9.97293300
351.49999250,-9.86466500
351.99999249,-9.75516700
352.49999247,-9.64689900
352.99999246,-9.64689900
353.49999244,-9.75516700
353.99999243,-9.86220500
354.49999242,-9.95939900
354.99999240,-10.01415000
355.49999239,-10.02522000
355.99999237,-9.91510800
356.49999236,-9.68811500
356.99999235,-9.63336600
357.49999233,-9.75209100
357.99999232,-9.86220500
358.49999230,-9.95939900
358.99999229,-10.00861000
359.49999228,-9.99753900
359.99999226,-9.99753900
360.49999225,-10.00861000
360.99999223,-9.95939900
361.49999222,-9.86220500
361.99999220,-9.75516700
362.49999219,-9.64689900
362.99999218,-9.65243500
363.49999216,-9.78223300
363.99999215,-9.78531000
364.49999213,-9.66596900
364.99999212,-9.60568300
365.49999211,-9.59461100
365.99999209,-9.70718500
366.49999208,-9.94525100
366.99999206,-9.94525100
367.49999205,-9.70718500
367.99999203,-9.59461100
368.49999202,-9.60568300
368.99999201,-9.66350800
369.49999199,-9.77116100
369.99999198,-9.82098900
370.49999196,-9.79884200
370.99999195,-9.85113100
371.49999194,-9.97047100
371.99999192,-9.97047100
372.49999191,-9.85113100
372.99999189,-9.79638200
373.49999188,-9.80745600
373.99999187,-9.80991600
374.49999185,-9.80991600
374.99999184,-9.81237700
375.49999182,-9.82344900
375.99999181,-9.76870100
376.49999179,-9.64936000
376.99999178,-9.64689900
377.49999177,-9.75516700
377.99999175,-9.86466500
378.49999174,-9.97293300
378.99999172,-9.97846900
379.49999171,-9.89234600
379.99999170,-9.66966000
380.49999168,-9.31286800
380.99999167,-9.36761900
381.49999165,-9.83267700
381.99999164,-10.05229000
382.49999162,-10.01968000
382.99999161,-9.95386200
383.49999160,-9.83452200
383.99999158,-9.83759800
384.49999157,-9.96739700
384.99999155,-9.97047100
385.49999154,-9.85113100
385.99999153,-9.79084600
386.49999151,-9.77977300
386.99999150,-9.89234600
387.49999148,-10.13041000
387.99999147,-10.12795000
388.49999145,-9.87881400
388.99999144,-9.81852800
389.49999143,-9.93725300
389.99999141,-10.04983000
390.49999140,-10.15810000
390.99999138,-10.15810000
391.49999137,-10.04983000
391.99999136,-9.94279000
392.49999134,-9.84559500
392.99999133,-9.79638200
393.49999131,-9.80745600
393.99999130,-9.80745600
394.49999129,-9.79638200
394.99999127,-9.85113100
395.49999126,-9.97047100
395.99999124,-9.96739700
396.49999123,-9.83759800
396.99999121,-9.83452200
397.49999120,-9.95386200
397.99999119,-10.01415000
398.49999117,-10.02522000
398.99999116,-9.91818300
399.49999114,-9.70164800
399.99999113,-9.59215000
400.49999112,-9.59215000
400.99999110,-9.70164800
401.49999109,-9.91818300
401.99999107,-10.02215000
402.49999106,-10.00062000
402.99999104,-10.00062000
403.49999103,-10.02215000
403.99999102,-9.91510800
404.49999100,-9.68811500
404.99999099,-9.63029000
405.49999097,-9.73855800
405.99999096,-9.90342000
406.49999095,-10.11934000
406.99999093,-10.16917000
407.49999092,-10.03937000
407.99999090,-9.98400600
408.49999089,-10.00615000
408.99999088,-9.95939900
409.49999086,-9.86220500
409.99999085,-9.75209100
410.49999083,-9.63336600
410.99999082,-9.69365100
411.49999080,-9.94279000
411.99999079,-9.94279000
412.49999078,-9.69365100
412.99999076,-9.63336600
413.49999075,-9.75209100
413.99999073,-9.86774200
414.49999072,-9.98646600
414.99999071,-9.93171700
415.49999069,-9.70472400
415.99999068,-9.59215000
416.49999066,-9.59215000
416.99999065,-9.70164800
417.49999063,-9.91818300
417.99999062,-10.02215000
418.49999061,-10.00062000
418.99999059,-9.99753900
419.49999058,-10.00861000
419.99999056,-9.95632300
420.49999055,-9.84867000
420.99999054,-9.79330700
421.49999052,-9.79330700
421.99999051,-9.85420700
422.49999049,-9.98400600
422.99999048,-9.92864100
423.49999047,-9.69119100
423.99999045,-9.63582600
424.49999044,-9.76562400
424.99999042,-9.82098900
425.49999041,-9.79884200
425.99999039,-9.84867000
426.49999038,-9.95632300
426.99999037,-10.01415000
427.49999035,-10.02522000
427.99999034,-9.91510800
428.49999032,-9.68811500
428.99999031,-9.63582600
429.49999030,-9.76562400
429.99999028,-9.82344900
430.49999027,-9.81237700
430.99999025,-9.81237700
431.49999024,-9.82344900
431.99999022,-9.76562400
432.49999021,-9.63582600
432.99999020,-9.68811500
433.49999018,-9.91510800
433.99999017,-10.02215000
434.49999015,-10.00062000
434.99999014,-10.00062000
435.49999013,-10.02215000
435.99999011,-9.91510800
436.49999010,-9.68811500
436.99999008,-9.63336600
437.49999007,-9.75209100
437.99999006,-9.86220500
438.49999004,-9.95939900
438.99999003,-10.01169000
439.49999001,-10.01169000
439.99999000,-9.95939900
440.49998998,-9.86220500
440.99998997,-9.75516700
441.49998996,-9.64689900
441.99998994,-9.64689900
442.49998993,-9.75516700
442.99998991,-9.86774200
443.49998990,-9.98646600
443.99998989,-9.92864100
444.49998987,-9.69119100
444.99998986,-9.63336600
445.49998984,-9.75209100
445.99998983,-9.86774200
446.49998981,-9.98646600
446.99998980,-9.92864100
447.49998979,-9.69119100
447.99998977,-9.63336600
448.49998976,-9.75209100
448.99998974,-9.86220500
449.49998973,-9.95939900
449.99998972,-10.01169000
450.49998970,-10.01169000
450.99998969,-9.95939900
451.49998967,-9.86220500
451.99998966,-9.75762700
452.49998964,-9.66043300
452.99998963,-9.60814500
453.49998962,-9.60814500
453.99998960,-9.66350800
454.49998959,-9.77116100
454.99998957,-9.82344900
455.49998956,-9.81237700
455.99998955,-9.80991600
456.49998953,-9.80991600
456.99998952,-9.80745600
457.49998950,-9.79638200
457.99998949,-9.84559500
458.49998948,-9.94279000
458.99998946,-10.05536000
459.49998945,-10.18516000
459.99998943,-10.07566000
460.49998942,-9.72933000
460.99998940,-9.62229300
461.49998939,-9.76316400
461.99998938,-9.82344900
462.49998936,-9.81237700
462.99998935,-9.81237700
463.49998933,-9.82344900
463.99998932,-9.76562400
464.49998931,-9.63582600
464.99998929,-9.69119100
465.49998928,-9.92864100
465.99998926,-9.98092900
466.49998925,-9.84005800
466.99998923,-9.83452200
467.49998922,-9.95386200
467.99998921,-10.00861000
468.49998919,-9.99753900
468.99998918,-9.99507800
469.49998916,-9.99507800
469.99998915,-10.00062000
470.49998914,-10.02215000
470.99998912,-9.91510800
471.49998911,-9.68811500
471.99998909,-9.63582600
472.49998908,-9.76562400
472.99998907,-9.82344900
473.49998905,-9.81237700
473.99998904,-9.80745600
474.49998902,-9.79638200
474.99998901,-9.85113100
475.49998899,-9.97047100
475.99998898,-9.96739700
476.49998897,-9.83759800
476.99998895,-9.83452200
477.49998894,-9.95386200
477.99998892,-10.01169000
478.49998891,-10.01169000
478.99998890,-9.95632300
479.49998888,-9.84867000
479.99998887,-9.79330700
480.49998885,-9.79330700
480.99998884,-9.84867000
481.49998882,-9.95632300
481.99998881,-10.00861000
482.49998880,-9.99753900
482.99998878,-10.00062000
483.49998877,-10.02215000
483.99998875,-9.91264700
484.49998874,-9.67458200
484.99998873,-9.67150600
485.49998871,-9.89849900
485.99998870,-10.06951000
486.49998868,-10.18824000
486.99998867,-10.07812000
487.49998866,-9.74286400
487.99998864,-9.58661400
488.49998863,-9.63029000
488.99998861,-9.58599900
489.49998860,-9.47834600
489.99998858,-9.41744600
490.49998857,-9.39591400
490.99998856,-9.55770100
491.49998854,-9.89296200
491.99998853,-9.99446300
492.49998851,-9.84313500
492.99998850,-9.83452200
493.49998849,-9.95386200
493.99998847,-10.00861000
494.49998846,-9.99753900
494.99998844,-10.00062000
495.49998843,-10.02215000
495.99998841,-9.91818300
496.49998840,-9.70164800
496.99998839,-9.59768700
497.49998837,-9.61921700
497.99998836,-9.61921700
498.49998834,-9.59768700
498.99998833,-9.70472400
499.49998832,-9.93171700
499.99998830,-9.98092900
500.49998829,-9.84005800
500.99998827,-9.83206100
501.49998826,-9.94033000
501.99998824,-10.05290000
502.49998823,-10.17163000
502.99998822,-10.11380000
503.49998820,-9.87635300
503.99998819,-9.82406500
504.49998817,-9.96493600
504.99998816,-9.97047100
505.49998815,-9.85113100
505.99998813,-9.79330700
506.49998812,-9.79330700
506.99998810,-9.85113100
507.49998809,-9.97047100
507.99998808,-9.97047100
508.49998806,-9.85113100
508.99998805,-9.79884200
509.49998803,-9.82098900
509.99998802,-9.76870100
510.49998800,-9.64936000
510.99998799,-9.64936000
511.49998798,-9.76870100
511.99998796,-9.82344900
512.49998795,-9.81237700
512.99998793,-9.80745600
513.49998792,-9.79638200
513.99998791,-9.84867000
514.49998789,-9.95632300
514.99998788,-10.01415000
515.49998786,-10.02522000
515.99998785,-9.91510800
516.49998783,-9.68811500
516.99998782,-9.63336600
517.49998781,-9.75209100
517.99998779,-9.86220500
518.49998778,-9.95939900
518.99998776,-10.01169000
519.49998775,-10.01169000
519.99998774,-9.95078800
520.49998772,-9.82098900
520.99998771,-9.87635300
521.49998769,-10.11380000
521.99998768,-10.16609000
522.49998767,-10.02522000
522.99998765,-10.02830000
523.49998764,-10.17963000
523.99998762,-10.07566000
524.49998761,-9.72933000
524.99998759,-9.61983200
525.49998758,-9.74963100
525.99998757,-9.86774200
526.49998755,-9.98646600
526.99998754,-9.93171700
527.49998752,-9.70472400
527.99998751,-9.59461100
528.49998750,-9.60568300
528.99998748,-9.66350800
529.49998747,-9.77116100
529.99998745,-9.82098900
530.49998744,-9.79884200
530.99998742,-9.85113100
531.49998741,-9.97047100
531.99998740,-9.96739700
532.49998738,-9.83759800
532.99998737,-9.83206100
533.49998735,-9.94033000
533.99998734,-10.05536000
534.49998733,-10.18516000
534.99998731,-10.07259000
535.49998730,-9.71579600
535.99998728,-9.66658400
536.49998727,-9.93725300
536.99998726,-9.94525100
537.49998724,-9.70718500
537.99998723,-9.59215000
538.49998721,-9.59215000
538.99998720,-9.70472400
539.49998718,-9.93171700
539.99998717,-9.98400600
540.49998716,-9.85420700
540.99998714,-9.79884200
541.49998713,-9.82098900
541.99998711,-9.77116100
542.49998710,-9.66350800
542.99998709,-9.60814500
543.49998707,-9.60814500
543.99998706,-9.66350800
544.49998704,-9.77116100
544.99998703,-9.82652600
545.49998701,-9.82652600
545.99998700,-9.76562400
546.49998699,-9.63582600
546.99998697,-9.69365100
547.49998696,-9.94279000
547.99998694,-9.94279000
548.49998693,-9.69365100
548.99998692,-9.63029000
549.49998690,-9.73855800
549.99998689,-9.90342000
550.49998687,-10.11934000
550.99998686,-10.16917000
551.49998685,-10.03937000
551.99998683,-9.98954200
552.49998682,-10.03322000
552.99998680,-9.87942800
553.49998679,-9.55524100
553.99998677,-9.39837600
554.49998676,-9.43159500
554.99998675,-9.44205100
555.49998673,-9.45312500
555.99998672,-9.39283900
556.49998670,-9.25196800
556.99998669,-9.35347000
557.49998668,-9.67765700
557.99998666,-9.89480700
558.49998665,-9.99200200
558.99998663,-9.93171700
559.49998662,-9.70472400
559.99998660,-9.59215000
560.49998659,-9.59215000
560.99998658,-9.69611200
561.49998656,-9.89050200
561.99998655,-10.10212000
562.49998653,-10.30758000
562.99998652,-10.36540000
563.49998651,-10.27867000
563.99998649,-10.00984000
564.49998648,-9.57738700
564.99998646,-9.40944900
565.49998645,-9.50664300
565.99998643,-9.83944400
566.49998642,-10.40170000
566.99998641,-10.50320000
567.49998639,-10.12426000
567.99998638,-9.95386200
568.49998636,-9.98708100
568.99998635,-9.99261800
569.49998634,-9.98154500
569.99998632,-10.03629000
570.49998631,-10.15563000
570.99998629,-10.16117000
571.49998628,-10.06398000
571.99998627,-9.89050200
572.49998625,-9.63090500
572.99998624,-9.79822800
573.49998622,-10.39309000
573.99998621,-10.53888000
574.49998619,-10.30204000
574.99998618,-9.48326700
575.49998617,-8.23142100
575.99998615,-6.99249500
576.49998614,-5.96764200
576.99998612,-5.33649100
577.49998611,-5.28420300
577.99998610,-5.01476300
578.49998608,-4.65920300
578.99998607,-4.20890700
579.49998605,-3.76660900
579.99998604,-3.25848900
580.49998602,-2.78358700
580.99998601,-2.48954200
581.49998600,-2.45816900
581.99998598,-2.33452300
582.49998597,-2.20533900
582.99998595,-1.74950800
583.49998594,-1.05868600
583.99998593,-0.49028050
584.49998591,-0.13471950
584.99998590,0.06028543
585.49998588,0.03813976
585.99998587,-0.05228838
586.49998586,-0.16978350
586.99998584,-0.74126480
587.49998583,-1.68061000
587.99998581,-2.21333700
588.49998580,-2.28900100
588.99998578,-2.00848900
589.49998577,-1.37180100
589.99998576,-0.93196360
590.49998574,-0.70497050
590.99998573,-0.96026080
591.49998571,-1.65108300
591.99998570,-2.44771100
592.49998569,-3.26894700
592.99998567,-3.52177600
593.49998566,-3.15391200
593.99998564,-2.75529000
594.49998563,-2.31176200
594.99998561,-2.31729800
595.49998560,-2.78235700
595.99998559,-3.04626000
596.49998557,-3.07824800
596.99998556,-3.27017700
597.49998554,-3.56114600
597.99998553,-3.82751000
598.49998552,-4.04404500
598.99998550,-4.00283000
599.49998549,-3.73339100
599.99998547,-3.21973400
600.49998546,-2.55044300
600.99998545,-1.90206700
601.49998543,-1.31889800
601.99998542,-1.60986700
602.49998540,-2.68946800
602.99998539,-4.05696300
603.49998537,-5.54687500
603.99998536,-6.36749500
604.49998535,-6.37795200
604.99998533,-6.09744100
605.49998532,-5.52595900
605.99998530,-4.81176100
606.49998529,-4.08895200
606.99998528,-3.30339600
607.49998526,-2.55782500
607.99998525,-2.53567900
608.49998523,-3.19389700
608.99998522,-4.38853300
609.49998520,-5.94303600
609.99998519,-7.25332100
610.49998518,-8.14960600
610.99998516,-8.14407000
611.49998515,-7.22625500
611.99998513,-6.00086100
612.49998512,-4.58661400
612.99998511,-3.85273100
613.49998509,-3.89640700
613.99998508,-4.44635800
614.49998506,-5.48289800
614.99998505,-6.21062900
615.49998503,-6.52312900
615.99998502,-6.76488600
616.49998501,-6.86208100
616.99998499,-6.75196800
617.49998498,-6.43885300
617.99998496,-6.15588100
618.49998495,-5.89566900
618.99998494,-6.13742600
619.49998492,-6.80671700
619.99998491,-7.68885300
620.49998489,-8.64911400
620.99998488,-9.39099300
621.49998487,-9.83390700
621.99998485,-9.48449700
622.49998484,-8.42704200
622.99998482,-6.99064900
623.49998481,-5.31680600
623.99998479,-4.76747000
624.49998478,-5.36048200
624.99998477,-6.78887800
625.49998475,-8.89456100
625.99998474,-10.46813000
626.49998472,-11.30967000
626.99998471,-11.29614000
627.49998470,-10.39985000
627.99998468,-9.09264300
628.49998467,-7.54921200
628.99998465,-6.29429100
629.49998464,-5.49520200
629.99998462,-5.60285400
630.49998461,-6.60679100
630.99998460,-7.91707700
631.49998458,-9.36269600
631.99998457,-10.45583000
632.49998455,-11.03839000
632.99998454,-10.88460000
633.49998453,-10.02153000
633.99998451,-8.69463500
634.49998450,-7.04232200
634.99998448,-6.30351900
635.49998447,-6.56373000
635.99998446,-7.31053100
636.49998444,-8.47625500
636.99998443,-9.61921700
637.49998441,-10.56841000
637.99998440,-11.08760000
638.49998438,-11.09867000
638.99998437,-10.51919000
639.49998436,-9.41806000
639.99998434,-8.42888700
640.49998433,-7.69500400
640.99998431,-7.22563900
641.49998430,-7.08538300
641.99998429,-7.60703700
642.49998427,-8.71862700
642.99998426,-9.72687000
643.49998424,-10.52596000
643.99998423,-10.67975000
644.49998421,-10.16117000
644.99998420,-9.36700200
645.49998419,-8.38521200
645.99998417,-7.64640700
646.49998416,-7.23609700
646.99998414,-7.43971400
647.49998413,-8.21665800
647.99998412,-9.27411400
648.49998410,-10.49397000
648.99998409,-11.05746000
649.49998407,-10.86183000
649.99998406,-10.57886000
650.49998405,-10.20116000
650.99998403,-9.79453800
651.49998402,-9.43836000
651.99998400,-9.07049700
652.49998399,-8.73585100
652.99998397,-8.82628000
653.49998396,-9.30118100
653.99998395,-10.03137000
654.49998393,-10.91658000
654.99998392,-11.54589000
655.49998390,-11.83686000
655.99998389,-11.67507000
656.49998388,-11.07099000
656.99998386,-10.38939000
657.49998385,-9.72010300
657.99998383,-9.25319900
658.49998382,-9.05942400
658.99998380,-9.22674700
659.49998379,-9.75578200
659.99998378,-10.18147000
660.49998376,-10.46260000
660.99998375,-10.55856000
661.49998373,-10.43984000
661.99998372,-10.27990000
662.49998371,-10.09658000
662.99998369,-9.89050200
663.49998368,-9.69611200
663.99998366,-9.59461100
664.49998365,-9.60568300
664.99998364,-9.65797200
665.49998362,-9.74409400
665.99998361,-9.90342000
666.49998359,-10.11934000
666.99998358,-10.18024000
667.49998356,-10.09350000
667.99998355,-9.83267700
668.49998354,-9.43343900
668.99998352,-9.11171200
669.49998351,-8.89579100
669.99998349,-9.00590500
670.49998348,-9.43774600
670.99998347,-9.75947300
671.49998345,-9.94279000
671.99998344,-9.98954200
672.49998342,-9.88127400
672.99998341,-9.72440900
673.49998339,-9.54109200
673.99998338,-9.33809100
674.49998337,-9.15477300
674.99998335,-9.01205700
675.49998334,-8.95853700
675.99998332,-8.73892700
676.49998331,-8.35998900
676.99998330,-8.50270700
677.49998328,-9.11847900
677.99998327,-9.74717000
678.49998325,-10.30881000
678.99998324,-10.71543000
679.49998322,-10.88767000
679.99998321,-10.89321000
680.49998320,-10.74249000
680.99998318,-10.21223000
681.49998317,-9.35900500
681.99998315,-8.98560400
682.49998314,-9.12586100
682.99998313,-9.45496900
683.49998311,-9.96309000
683.99998310,-10.31988000
684.49998308,-10.46014000
684.99998307,-10.65207000
685.49998306,-10.83600000
685.99998304,-10.99778000
686.49998303,-11.12697000
686.99998301,-10.97072000
687.49998300,-10.54934000
687.99998298,-10.22822000
688.49998297,-10.03383000
688.99998296,-10.03937000
689.49998294,-10.25529000
689.99998293,-10.46998000
690.49998291,-10.66437000
690.99998290,-10.77387000
691.49998289,-10.79601000
691.99998287,-10.58132000
692.49998286,-10.14948000
692.99998284,-9.93233200
693.49998283,-9.94279000
693.99998281,-10.10519000
694.49998280,-10.40785000
694.99998279,-10.67667000
695.49998277,-10.89321000
695.99998276,-10.84092000
696.49998274,-10.52780000
696.99998273,-10.21715000
697.49998272,-9.95816900
697.99998270,-9.65305000
698.49998269,-9.36208200
698.99998267,-9.21321300
699.49998266,-9.24643100
699.99998265,-9.24889200
700.49998263,-9.22736200
700.99998262,-9.32886300
701.49998260,-9.53371000
701.99998259,-9.69918700
702.49998257,-9.81791200
702.99998256,-9.71333600
703.49998255,-9.40022100
703.99998253,-9.12832200
704.49998252,-8.91240100
704.99998250,-8.96469000
705.49998249,-9.27780500
705.99998248,-9.59338000
706.49998246,-9.87389300
706.99998245,-10.07197000
707.49998243,-10.13656000
707.99998242,-10.24053000
708.49998240,-10.37033000
708.99998239,-10.26083000
709.49998238,-9.91449300
709.99998236,-9.80191900
710.49998235,-9.92064400
710.99998233,-10.08305000
711.49998232,-10.27744000
711.99998231,-10.43430000
712.49998229,-10.53150000
712.99998228,-10.52842000
713.49998226,-10.42015000
713.99998225,-10.30512000
714.49998224,-10.17532000
714.99998222,-10.29343000
715.49998221,-10.67175000
715.99998219,-10.61700000
716.49998218,-10.13041000
716.99998216,-10.01476000
717.49998215,-10.26390000
717.99998214,-10.43676000
718.49998212,-10.54503000
718.99998211,-10.49520000
719.49998209,-10.30081000
719.99998208,-10.03199000
720.49998207,-9.70780000
720.99998205,-9.65797200
721.49998204,-9.89603700
721.99998202,-10.05290000
722.49998201,-10.10642000
722.99998199,-10.31496000
723.49998198,-10.65022000
723.99998197,-10.70497000
724.49998195,-10.47798000
724.99998194,-10.25837000
725.49998192,-10.05290000
725.99998191,-10.01476000
726.49998190,-10.17717000
726.99998188,-10.07812000
727.49998187,-9.74286400
727.99998185,-9.58353800
728.49998184,-9.61675600
728.99998182,-9.62475400
729.49998181,-9.62475400
729.99998180,-9.63029000
730.49998178,-9.65182000
730.99998177,-9.55032000
731.49998175,-9.34485600
731.99998174,-9.17753400
732.49998173,-9.04835000
732.99998171,-9.20460100
733.49998170,-9.62598400
733.99998168,-9.95263200
734.49998167,-10.16855000
734.99998166,-10.06705000
735.49998164,-9.66781400
735.99998163,-9.19229800
736.49998161,-8.69586600
736.99998160,-8.42950200
737.49998158,-8.41843000
737.99998157,-8.73154400
738.49998156,-9.32517200
738.99998154,-9.89665300
739.49998153,-10.36048000
739.99998151,-10.66314000
740.49998150,-10.73819000
740.99998149,-10.68344000
741.49998147,-10.50012000
741.99998146,-10.19193000
742.49998144,-9.81422100
742.99998143,-9.44635800
743.49998141,-9.13324300
743.99998140,-9.13631800
744.49998139,-9.45989100
744.99998137,-9.78161900
745.49998136,-10.07259000
745.99998134,-10.22699000
746.49998133,-10.21592000
746.99998132,-10.11134000
747.49998130,-9.92802600
747.99998129,-9.65858700
748.49998127,-9.32332600
748.99998126,-9.32086600
749.49998125,-9.64505400
749.99998123,-9.97231800
750.49998122,-10.28543000
750.99998120,-10.33772000
751.49998119,-10.12119000
751.99998117,-9.85236300
752.49998116,-9.54970500
752.99998115,-9.39037900
753.49998113,-9.39037900
753.99998112,-9.54170700
754.49998110,-9.81114700
754.99998109,-10.22884000
755.49998108,-10.73634000
755.99998106,-10.99717000
756.49998105,-10.97564000
756.99998103,-10.81877000
757.49998102,-10.54934000
757.99998100,-10.13718000
758.49998099,-9.65120500
758.99998098,-9.28887700
759.49998096,-9.10556000
759.99998095,-9.11417300
760.49998093,-9.33009300
760.99998092,-9.53555600
761.49998091,-9.69734200
761.99998089,-9.95263200
762.49998088,-10.25529000
762.99998086,-10.42323000
763.49998085,-10.45583000
763.99998084,-10.13410000
764.49998082,-9.48572700
764.99998081,-9.16154000
765.49998079,-9.18307000
765.99998078,-9.40883300
766.49998076,-9.84067400
766.99998075,-10.04675000
767.49998074,-9.99261800
767.99998072,-10.03629000
768.49998071,-10.15563000
768.99998069,-10.15810000
769.49998068,-10.04983000
769.99998067,-9.94033000
770.49998065,-9.83206100
770.99998064,-9.83759800
771.49998062,-9.96739700
771.99998061,-9.96739700
772.49998059,-9.83759800
772.99998058,-9.83452200
773.49998057,-9.95386200
773.99998055,-10.01722000
774.49998054,-10.03875000
774.99998052,-9.88188800
775.49998051,-9.56877400
775.99998050,-9.36269600
776.49998048,-9.29810500
776.99998047,-9.19106800
777.49998045,-9.05081200
777.99998044,-9.20460100
778.49998043,-9.62598400
778.99998041,-9.95017100
779.49998040,-10.15502000
779.99998038,-10.09166000
780.49998037,-9.74594000
780.99998035,-9.57800100
781.49998034,-9.58907400
781.99998033,-9.69611200
782.49998031,-9.89050200
782.99998030,-10.10212000
783.49998028,-10.30758000
783.99998027,-10.35125000
784.49998026,-10.21038000
784.99998024,-10.20239000
785.49998023,-10.31065000
785.99998021,-10.41462000
786.49998020,-10.50135000
786.99998018,-10.60839000
787.49998017,-10.72712000
787.99998016,-10.66929000
788.49998014,-10.43184000
788.99998013,-10.37648000
789.49998011,-10.50627000
789.99998010,-10.57271000
790.49998009,-10.59424000
790.99998007,-10.43492000
791.49998006,-10.11073000
791.99998004,-9.95939900
792.49998003,-10.01415000
792.99998001,-9.91264700
793.49998000,-9.67458200
793.99997999,-9.67458200
794.49997997,-9.91264700
794.99997996,-10.02768000
795.49997994,-10.02768000
795.99997993,-9.92064400
796.49997992,-9.71579600
796.99997990,-9.55585600
797.49997989,-9.45866100
797.99997987,-9.46727400
798.49997986,-9.59707200
798.99997985,-9.60260800
799.49997983,-9.49434000
799.99997982,-9.38484200
800.49997980,-9.27657400
800.99997979,-9.27657400
801.49997977,-9.38484200
801.99997976,-9.49187900
802.49997975,-9.58907400
802.99997973,-9.64689900
803.49997972,-9.66842900
803.99997970,-9.50664300
804.49997969,-9.17199800
804.99997968,-9.06742100
805.49997966,-9.20767700
805.99997965,-9.26796200
806.49997963,-9.25688900
806.99997962,-9.24889200
807.49997960,-9.22736200
807.99997959,-9.32578700
808.49997958,-9.52017700
808.99997956,-9.72933000
809.49997955,-9.92372000
809.99997953,-10.02215000
810.49997952,-10.00062000
810.99997951,-10.00308000
811.49997949,-10.03629000
811.99997948,-9.87389300
812.49997946,-9.52817300
812.99997945,-9.46727400
813.49997944,-9.68380800
813.99997942,-9.95263200
814.49997941,-10.25529000
814.99997939,-10.40908000
815.49997938,-10.38755000
815.99997936,-10.32419000
816.49997935,-10.20485000
816.99997934,-10.20239000
817.49997932,-10.31065000
817.99997931,-10.41769000
818.49997929,-10.51489000
818.99997928,-10.56717000
819.49997927,-10.56717000
819.99997925,-10.51735000
820.49997924,-10.43122000
820.99997922,-10.27190000
821.49997921,-10.05598000
821.99997919,-10.00923000
822.49997918,-10.15010000
822.99997917,-10.15256000
823.49997915,-10.02276000
823.99997914,-10.02276000
824.49997912,-10.15256000
824.99997911,-10.15810000
825.49997910,-10.04983000
825.99997908,-9.94033000
826.49997907,-9.83206100
826.99997905,-9.84005800
827.49997904,-9.98092900
827.99997903,-9.93417800
828.49997901,-9.71825700
828.99997900,-9.55585600
829.49997898,-9.45866100
829.99997897,-9.46419700
830.49997895,-9.58353800
830.99997894,-9.64382400
831.49997893,-9.65489600
831.99997891,-9.54785900
832.49997890,-9.33132400
832.99997888,-9.22736200
833.49997887,-9.24889200
833.99997886,-9.25196800
834.49997884,-9.24089500
834.99997883,-9.29564500
835.49997881,-9.41498600
835.99997880,-9.41190900
836.49997878,-9.28211000
836.99997877,-9.27657400
837.49997876,-9.38484200
837.99997874,-9.49434000
838.49997873,-9.60260800
838.99997871,-9.59461100
839.49997870,-9.45373900
839.99997869,-9.50049200
840.49997867,-9.71641300
840.99997866,-9.87327700
841.49997864,-9.94832700
841.99997863,-10.04429000
842.49997861,-10.13103000
842.99997860,-10.23807000
843.49997859,-10.35679000
843.99997857,-10.30204000
844.49997856,-10.07505000
844.99997854,-9.95939900
845.49997853,-9.94832700
845.99997852,-10.11073000
846.49997850,-10.43492000
846.99997849,-10.59424000
847.49997847,-10.57271000
847.99997846,-10.50935000
848.49997845,-10.39001000
848.99997843,-10.39309000
849.49997842,-10.52288000
849.99997840,-10.52596000
850.49997839,-10.40662000
850.99997837,-10.35741000
851.49997836,-10.39001000
851.99997835,-10.28851000
852.49997833,-10.07197000
852.99997832,-9.96247500
853.49997830,-9.96247500
853.99997829,-10.07751000
854.49997828,-10.31557000
854.99997826,-10.31557000
855.49997825,-10.07751000
855.99997823,-9.97047100
856.49997822,-10.00308000
856.99997820,-9.95939900
857.49997819,-9.86220500
857.99997818,-9.75209100
858.49997816,-9.63336600
858.99997815,-9.69672700
859.49997813,-9.95632300
859.99997812,-9.91203200
860.49997811,-9.58784400
860.99997809,-9.31902000
861.49997808,-9.12524500
861.99997806,-9.07849400
862.49997805,-9.19660400
862.99997804,-9.30671700
863.49997802,-9.40391200
863.99997801,-9.45312500
864.49997799,-9.44205100
864.99997798,-9.44205100
865.49997796,-9.45312500
865.99997795,-9.39837600
866.49997794,-9.27903600
866.99997792,-9.28211000
867.49997791,-9.41190900
867.99997789,-9.40944900
868.49997788,-9.26857800
868.99997787,-9.31225400
869.49997785,-9.51771500
869.99997784,-9.73486600
870.49997782,-9.95078800
870.99997781,-9.94832700
871.49997779,-9.72133400
871.99997778,-9.55893100
872.49997777,-9.47280900
872.99997775,-9.41498600
873.49997774,-9.38238100
873.99997772,-9.58538300
874.49997771,-9.98523600
874.99997770,-10.36417000
875.49997768,-10.69943000
875.99997767,-10.58378000
876.49997765,-10.01107000
876.99997764,-9.74163300
877.49997763,-9.79638200
877.99997761,-9.80745600
878.49997760,-9.79638200
878.99997758,-9.84559500
879.49997757,-9.94279000
879.99997755,-10.04429000
880.49997754,-10.13103000
880.99997753,-10.24053000
881.49997751,-10.37033000
881.99997750,-10.25775000
882.49997748,-9.90096000
882.99997747,-9.84867000
883.49997746,-10.10827000
883.99997744,-10.16917000
884.49997743,-10.03937000
884.99997741,-9.97846900
885.49997740,-9.97846900
885.99997738,-10.03629000
886.49997737,-10.15563000
886.99997736,-10.15810000
887.49997734,-10.04983000
887.99997733,-9.94279000
888.49997731,-9.84559500
888.99997730,-9.79884200
889.49997729,-9.82098900
889.99997727,-9.76008800
890.49997726,-9.60875900
890.99997724,-9.77362200
891.49997723,-10.24914000
891.99997722,-10.30450000
892.49997720,-9.93663900
892.99997719,-9.77423700
893.49997717,-9.82898600
893.99997716,-9.72994500
894.49997714,-9.50295300
894.99997713,-9.45373900
895.49997712,-9.59461100
895.99997710,-9.59461100
896.49997709,-9.45373900
896.99997707,-9.50049200
897.49997706,-9.71641300
897.99997705,-9.87573700
898.49997703,-9.96186000
898.99997702,-10.01968000
899.49997700,-10.05229000
899.99997699,-9.83513700
900.49997697,-9.38115100
900.99997696,-9.26857800
901.49997695,-9.49557100
901.99997693,-9.77300600
902.49997692,-10.09719000
