Time,Channel B
(ns),(mV)

-100.99999470,-10.15563000
-100.49999472,-10.03629000
-99.99999473,-9.98400600
-99.49999474,-10.00615000
-98.99999476,-9.95632300
-98.49999477,-9.84867000
-97.99999479,-9.79330700
-97.49999480,-9.79330700
-96.99999481,-9.85420700
-96.49999483,-9.98400600
-95.99999484,-9.92864100
-95.49999486,-9.69119100
-94.99999487,-9.63029000
-94.49999488,-9.73855800
-93.99999490,-9.90342000
-93.49999491,-10.11934000
-92.99999493,-10.17470000
-92.49999494,-10.06644000
-91.99999496,-9.89849900
-91.49999497,-9.67150600
-90.99999498,-9.67458200
-90.49999500,-9.91264700
-89.99999501,-10.02215000
-89.49999503,-10.00062000
-88.99999504,-9.99507800
-88.49999505,-9.99507800
-87.99999507,-9.99507800
-87.49999508,-9.99507800
-86.99999510,-9.99261800
-86.49999511,-9.98154500
-85.99999513,-10.04183000
-85.49999514,-10.18270000
-84.99999515,-10.07812000
-84.49999517,-9.74286400
-83.99999518,-9.58353800
-83.49999520,-9.61675600
-82.99999521,-9.62229300
-82.49999522,-9.61122000
-81.99999524,-9.66043300
-81.49999525,-9.75762700
-80.99999527,-9.86774200
-80.49999528,-9.98646600
-79.99999529,-9.93171700
-79.49999531,-9.70472400
-78.99999532,-9.59461100
-78.49999534,-9.60568300
-77.99999535,-9.66350800
-77.49999537,-9.77116100
-76.99999538,-9.82344900
-76.49999539,-9.81237700
-75.99999541,-9.80991600
-75.49999542,-9.80991600
-74.99999544,-9.80745600
-74.49999545,-9.79638200
-73.99999546,-9.84867000
-73.49999548,-9.95632300
-72.99999549,-10.01169000
-72.49999551,-10.01169000
-71.99999552,-9.95632300
-71.49999554,-9.84867000
-70.99999555,-9.79330700
-70.49999556,-9.79330700
-69.99999558,-9.85113100
-69.49999559,-9.97047100
-68.99999561,-9.97047100
-68.49999562,-9.85113100
-67.99999563,-9.79638200
-67.49999565,-9.80745600
-66.99999566,-9.80745600
-66.49999568,-9.79638200
-65.99999569,-9.84867000
-65.49999571,-9.95632300
-64.99999572,-10.01169000
-64.49999573,-10.01169000
-63.99999575,-9.95632300
-63.49999576,-9.84867000
-62.99999578,-9.79084600
-62.49999579,-9.77977300
-61.99999580,-9.88988600
-61.49999582,-10.11688000
-60.99999583,-10.17163000
-60.49999585,-10.05290000
-59.99999586,-9.94033000
-59.49999587,-9.83206100
-58.99999589,-9.83206100
-58.49999590,-9.94033000
-57.99999592,-10.04737000
-57.49999593,-10.14456000
-56.99999595,-10.20239000
-56.49999596,-10.22392000
-55.99999597,-10.06213000
-55.49999599,-9.72687000
-54.99999600,-9.61983200
-54.49999602,-9.74963100
-53.99999603,-9.86220500
-53.49999604,-9.95939900
-52.99999606,-10.01415000
-52.49999607,-10.02522000
-51.99999609,-9.91818300
-51.49999610,-9.70164800
-50.99999612,-9.59768700
-50.49999613,-9.61921700
-49.99999614,-9.62229300
-49.49999616,-9.61122000
-48.99999617,-9.66904400
-48.49999619,-9.79884200
-47.99999620,-9.74101800
-47.49999621,-9.49187900
-46.99999623,-9.48388300
-46.49999624,-9.69980200
-45.99999626,-9.91695300
-45.49999627,-10.12242000
-44.99999628,-10.17163000
-44.49999630,-10.05290000
-43.99999631,-9.94033000
-43.49999633,-9.83206100
-42.99999634,-9.83452200
-42.49999636,-9.95386200
-41.99999637,-10.00861000
-41.49999638,-9.99753900
-40.99999640,-10.00062000
-40.49999641,-10.02215000
-39.99999643,-9.91264700
-39.49999644,-9.67458200
-38.99999645,-9.67150600
-38.49999647,-9.89849900
-37.99999648,-10.06644000
-37.49999650,-10.17470000
-36.99999651,-10.11934000
-36.49999653,-9.90342000
-35.99999654,-9.74409400
-35.49999655,-9.65797200
-34.99999657,-9.60814500
-34.49999658,-9.60814500
-33.99999660,-9.66043300
-33.49999661,-9.75762700
-32.99999662,-9.86774200
-32.49999664,-9.98646600
-31.99999665,-9.92864100
-31.49999667,-9.69119100
-30.99999668,-9.63336600
-30.49999669,-9.75209100
-29.99999671,-9.86220500
-29.49999672,-9.95939900
-28.99999674,-10.00861000
-28.49999675,-9.99753900
-27.99999677,-9.99507800
-27.49999678,-9.99507800
-26.99999679,-9.99753900
-26.49999681,-10.00861000
-25.99999682,-9.95386200
-25.49999684,-9.83452200
-24.99999685,-9.83452200
-24.49999686,-9.95386200
-23.99999688,-10.01169000
-23.49999689,-10.01169000
-22.99999691,-9.95386200
-22.49999692,-9.83452200
-21.99999694,-9.84005800
-21.49999695,-9.98092900
-20.99999696,-9.93171700
-20.49999698,-9.70472400
-19.99999699,-9.59215000
-19.49999701,-9.59215000
-18.99999702,-9.70472400
-18.49999703,-9.93171700
-17.99999705,-9.98400600
-17.49999706,-9.85420700
-16.99999708,-9.79638200
-16.49999709,-9.80745600
-15.99999710,-9.80991600
-15.49999712,-9.80991600
-14.99999713,-9.80745600
-14.49999715,-9.79638200
-13.99999716,-9.85113100
-13.49999718,-9.97047100
-12.99999719,-9.97047100
-12.49999720,-9.85113100
-11.99999722,-9.79330700
-11.49999723,-9.79330700
-10.99999725,-9.85113100
-10.49999726,-9.97047100
-9.99999727,-9.96739700
-9.49999729,-9.83759800
-8.99999730,-9.84005800
-8.49999732,-9.98092900
-7.99999733,-9.93171700
-7.49999735,-9.70472400
-6.99999736,-9.59215000
-6.49999737,-9.59215000
-5.99999739,-9.70472400
-5.49999740,-9.93171700
-4.99999742,-9.98092900
-4.49999743,-9.84005800
-3.99999744,-9.83759800
-3.49999746,-9.96739700
-2.99999747,-9.97047100
-2.49999749,-9.85113100
-1.99999750,-9.79330700
-1.49999752,-9.79330700
-0.99999753,-9.85113100
-0.49999754,-9.97047100
0.00000244,-9.97047100
0.50000243,-9.85113100
1.00000241,-9.79084600
1.50000240,-9.77977300
2.00000239,-9.89234600
2.50000237,-10.13041000
3.00000236,-10.13349000
3.50000234,-9.90649500
4.00000233,-9.74101800
4.50000232,-9.64382400
5.00000230,-9.64689900
5.50000229,-9.75516700
6.00000227,-9.86466500
6.50000226,-9.97293300
7.00000224,-9.97047100
7.50000223,-9.85113100
8.00000222,-9.79638200
8.50000220,-9.80745600
9.00000219,-9.80745600
9.50000217,-9.79638200
10.00000216,-9.84867000
10.50000215,-9.95632300
11.00000213,-10.01169000
11.50000212,-10.01169000
12.00000210,-9.95939900
12.50000209,-9.86220500
13.00000207,-9.75209100
13.50000206,-9.63336600
14.00000205,-9.68565500
14.50000203,-9.90157400
15.00000202,-10.07197000
15.50000200,-10.20177000
16.00000199,-10.03998000
16.50000198,-9.59645700
17.00000196,-9.37684400
17.50000195,-9.38730200
18.00000193,-9.55524100
18.50000192,-9.87942800
19.00000191,-10.04183000
19.50000189,-10.03076000
20.00000188,-9.91510800
20.50000186,-9.68811500
21.00000185,-9.63582600
21.50000183,-9.76562400
22.00000182,-9.82098900
22.50000181,-9.79884200
23.00000179,-9.85420700
23.50000178,-9.98400600
24.00000176,-9.92864100
24.50000175,-9.69119100
25.00000174,-9.63336600
25.50000172,-9.75209100
26.00000171,-9.86220500
26.50000169,-9.95939900
27.00000168,-10.01169000
27.50000166,-10.01169000
28.00000165,-9.96186000
28.50000164,-9.87573700
29.00000162,-9.71333600
29.50000161,-9.48634300
30.00000159,-9.48634300
30.50000158,-9.71333600
31.00000157,-9.87881400
31.50000155,-9.97600800
32.00000154,-9.97047100
32.50000152,-9.85113100
33.00000151,-9.79330700
33.50000150,-9.79330700
34.00000148,-9.84867000
34.50000147,-9.95632300
35.00000145,-10.01169000
35.50000144,-10.01169000
36.00000142,-9.95386200
36.50000141,-9.83452200
37.00000140,-9.83759800
37.50000138,-9.96739700
38.00000137,-9.97047100
38.50000135,-9.85113100
39.00000134,-9.79638200
39.50000133,-9.80745600
40.00000131,-9.80991600
40.50000130,-9.80991600
41.00000128,-9.80991600
41.50000127,-9.80991600
42.00000125,-9.80745600
42.50000124,-9.79638200
43.00000123,-9.84867000
43.50000121,-9.95632300
44.00000120,-10.01169000
44.50000118,-10.01169000
45.00000117,-9.95632300
45.50000116,-9.84867000
46.00000114,-9.79330700
46.50000113,-9.79330700
47.00000111,-9.85420700
47.50000110,-9.98400600
48.00000108,-9.93171700
48.50000107,-9.70472400
49.00000106,-9.59215000
49.50000104,-9.59215000
50.00000103,-9.70164800
50.50000101,-9.91818300
51.00000100,-10.02768000
51.50000099,-10.02768000
52.00000097,-9.91510800
52.50000096,-9.68811500
53.00000094,-9.63336600
53.50000093,-9.75209100
54.00000092,-9.86220500
54.50000090,-9.95939900
55.00000089,-10.01169000
55.50000087,-10.01169000
56.00000086,-9.95632300
56.50000084,-9.84867000
57.00000083,-9.79330700
57.50000082,-9.79330700
58.00000080,-9.85113100
58.50000079,-9.97047100
59.00000077,-9.96739700
59.50000076,-9.83759800
60.00000075,-9.83759800
60.50000073,-9.96739700
61.00000072,-9.96739700
61.50000070,-9.83759800
62.00000069,-9.83452200
62.50000067,-9.95386200
63.00000066,-10.01169000
63.50000065,-10.01169000
64.00000063,-9.95632300
64.50000062,-9.84867000
65.00000060,-9.79330700
65.50000059,-9.79330700
66.00000058,-9.85113100
66.50000056,-9.97047100
67.00000055,-9.97047100
67.50000053,-9.85113100
68.00000052,-9.79330700
68.50000051,-9.79330700
69.00000049,-9.84559500
69.50000048,-9.94279000
70.00000046,-10.05290000
70.50000045,-10.17163000
71.00000043,-10.11380000
71.50000042,-9.87635300
72.00000041,-9.82406500
72.50000039,-9.96493600
73.00000038,-9.96739700
73.50000036,-9.83759800
74.00000035,-9.84005800
74.50000034,-9.98092900
75.00000032,-9.92864100
75.50000031,-9.69119100
76.00000029,-9.63582600
76.50000028,-9.76562400
77.00000026,-9.82344900
77.50000025,-9.81237700
78.00000024,-9.80991600
78.50000022,-9.80991600
79.00000021,-9.81791200
79.50000019,-9.85113100
80.00000018,-9.68626900
80.50000017,-9.32886300
81.00000015,-9.32640300
81.50000014,-9.67212000
82.00000012,-9.89234600
82.50000011,-9.97846900
83.00000010,-9.97293300
83.50000008,-9.86466500
84.00000007,-9.75209100
84.50000005,-9.63336600
85.00000004,-9.68811500
85.50000002,-9.91510800
86.00000001,-10.02215000
86.50000000,-10.00062000
86.99999998,-10.00062000
87.49999997,-10.02215000
87.99999995,-9.91510800
88.49999994,-9.68811500
88.99999993,-9.63336600
89.49999991,-9.75209100
89.99999990,-9.86466500
90.49999988,-9.97293300
90.99999987,-9.96739700
91.49999985,-9.83759800
91.99999984,-9.83759800
92.49999983,-9.96739700
92.99999981,-9.97293300
93.49999980,-9.86466500
93.99999978,-9.75209100
94.49999977,-9.63336600
94.99999976,-9.69119100
95.49999974,-9.92864100
95.99999973,-9.98646600
96.49999971,-9.86774200
96.99999970,-9.75209100
97.49999969,-9.63336600
97.99999967,-9.68811500
98.49999966,-9.91510800
98.99999964,-10.02215000
99.49999963,-10.00062000
99.99999961,-9.99507800
100.49999960,-9.99507800
100.99999959,-9.99753900
101.49999957,-10.00861000
101.99999956,-9.95386200
102.49999954,-9.83452200
102.99999953,-9.84005800
103.49999952,-9.98092900
103.99999950,-9.92864100
104.49999949,-9.69119100
104.99999947,-9.63336600
105.49999946,-9.75209100
105.99999944,-9.86220500
106.49999943,-9.95939900
106.99999942,-10.00615000
107.49999940,-9.98400600
107.99999939,-10.03629000
108.49999937,-10.15563000
108.99999936,-10.15563000
109.49999935,-10.03629000
109.99999933,-9.97846900
110.49999932,-9.97846900
110.99999930,-10.03937000
111.49999929,-10.16917000
111.99999927,-10.11380000
112.49999926,-9.87635300
112.99999925,-9.81852800
113.49999923,-9.93725300
113.99999922,-10.04983000
114.49999920,-10.15810000
114.99999919,-10.15810000
115.49999918,-10.04983000
115.99999916,-9.94033000
116.49999915,-9.83206100
116.99999913,-9.83206100
117.49999912,-9.94033000
117.99999911,-10.04983000
118.49999909,-10.15810000
118.99999908,-10.16117000
119.49999906,-10.06398000
119.99999905,-9.90711100
120.49999903,-9.71272100
120.99999902,-9.55032000
121.49999901,-9.43159500
121.99999899,-9.54724300
122.49999898,-9.90403500
122.99999896,-9.95878400
123.49999895,-9.71026000
123.99999894,-9.59768700
124.49999892,-9.61921700
124.99999891,-9.62229300
125.49999889,-9.61122000
125.99999888,-9.66350800
126.49999886,-9.77116100
126.99999885,-9.82652600
127.49999884,-9.82652600
127.99999882,-9.76870100
128.49999881,-9.64936000
128.99999879,-9.64689900
129.49999878,-9.75516700
129.99999877,-9.86774200
130.49999875,-9.98646600
130.99999874,-9.92864100
131.49999872,-9.69119100
131.99999871,-9.63029000
132.49999870,-9.73855800
132.99999868,-9.90342000
133.49999867,-10.11934000
133.99999865,-10.17163000
134.49999864,-10.05290000
134.99999862,-9.94586600
135.49999861,-9.85912800
135.99999860,-9.76070300
136.49999858,-9.67396600
136.99999857,-9.56692900
137.49999855,-9.44820400
137.99999854,-9.50602800
138.49999853,-9.74347900
138.99999851,-9.79884200
139.49999850,-9.66904400
139.99999848,-9.60814500
140.49999847,-9.60814500
140.99999845,-9.66043300
141.49999844,-9.75762700
141.99999843,-9.86220500
142.49999841,-9.95939900
142.99999840,-10.01169000
143.49999838,-10.01169000
143.99999837,-9.95632300
144.49999836,-9.84867000
144.99999834,-9.79330700
145.49999833,-9.79330700
145.99999831,-9.84867000
146.49999830,-9.95632300
146.99999829,-10.01169000
147.49999827,-10.01169000
147.99999826,-9.95632300
148.49999824,-9.84867000
148.99999823,-9.79638200
149.49999821,-9.80745600
149.99999820,-9.80745600
150.49999819,-9.79638200
150.99999817,-9.85420700
151.49999816,-9.98400600
151.99999814,-9.92864100
152.49999813,-9.69119100
152.99999812,-9.63336600
153.49999810,-9.75209100
153.99999809,-9.86466500
154.49999807,-9.97293300
154.99999806,-9.97047100
155.49999804,-9.85113100
155.99999803,-9.79638200
156.49999802,-9.80745600
156.99999800,-9.80745600
157.49999799,-9.79638200
157.99999797,-9.84867000
158.49999796,-9.95632300
158.99999795,-10.01169000
159.49999793,-10.01169000
159.99999792,-9.95386200
160.49999790,-9.83452200
160.99999789,-9.83452200
161.49999787,-9.95386200
161.99999786,-10.00615000
162.49999785,-9.98400600
162.99999783,-10.03629000
163.49999782,-10.15563000
163.99999780,-10.15563000
164.49999779,-10.03629000
164.99999778,-9.98154500
165.49999776,-9.99261800
165.99999775,-9.99507800
166.49999773,-9.99507800
166.99999772,-9.99507800
167.49999771,-9.99507800
167.99999769,-9.99753900
168.49999768,-10.00861000
168.99999766,-9.95386200
169.49999765,-9.83452200
169.99999763,-9.84005800
170.49999762,-9.98092900
170.99999761,-9.92618100
171.49999759,-9.67704200
171.99999758,-9.67704200
172.49999756,-9.92618100
172.99999755,-9.98400600
173.49999754,-9.85420700
173.99999752,-9.79330700
174.49999751,-9.79330700
174.99999749,-9.85420700
175.49999748,-9.98400600
175.99999746,-9.92864100
176.49999745,-9.69119100
176.99999744,-9.63336600
177.49999742,-9.75209100
177.99999741,-9.86774200
178.49999739,-9.98646600
178.99999738,-9.92864100
179.49999737,-9.69119100
179.99999735,-9.63029000
180.49999734,-9.73855800
180.99999732,-9.90096000
181.49999731,-10.10581000
181.99999730,-10.21284000
182.49999728,-10.21284000
182.99999727,-10.10335000
183.49999725,-9.88681100
183.99999724,-9.78531000
184.49999722,-9.81791200
184.99999721,-9.76870100
185.49999720,-9.64936000
185.99999718,-9.64689900
186.49999717,-9.75516700
186.99999715,-9.86220500
187.49999714,-9.95939900
187.99999713,-10.01169000
188.49999711,-10.01169000
188.99999710,-9.95386200
189.49999708,-9.83452200
189.99999707,-9.83452200
190.49999705,-9.95386200
190.99999704,-10.01415000
191.49999703,-10.02522000
191.99999701,-9.91510800
192.49999700,-9.68811500
192.99999698,-9.63336600
193.49999697,-9.75209100
193.99999696,-9.86220500
194.49999694,-9.95939900
194.99999693,-10.01169000
195.49999691,-10.01169000
195.99999690,-9.95078800
196.49999689,-9.82098900
196.99999687,-9.87635300
197.49999686,-10.11380000
197.99999684,-10.17163000
198.49999683,-10.05290000
198.99999681,-9.94279000
199.49999680,-9.84559500
199.99999679,-9.79638200
200.49999677,-9.80745600
200.99999676,-9.80745600
201.49999674,-9.79638200
201.99999673,-9.84867000
202.49999672,-9.95632300
202.99999670,-10.00861000
203.49999669,-9.99753900
203.99999667,-9.99753900
204.49999666,-10.00861000
204.99999664,-9.95939900
205.49999663,-9.86220500
205.99999662,-9.75209100
206.49999660,-9.63336600
206.99999659,-9.68811500
207.49999657,-9.91510800
207.99999656,-10.02522000
208.49999655,-10.01415000
208.99999653,-9.95632300
209.49999652,-9.84867000
209.99999650,-9.79638200
210.49999649,-9.80745600
210.99999648,-9.80991600
211.49999646,-9.80991600
211.99999645,-9.80745600
212.49999643,-9.79638200
212.99999642,-9.84867000
213.49999640,-9.95632300
213.99999639,-10.00861000
214.49999638,-9.99753900
214.99999636,-9.99753900
215.49999635,-10.00861000
215.99999633,-9.95386200
216.49999632,-9.83452200
216.99999631,-9.83206100
217.49999629,-9.94033000
217.99999628,-10.04983000
218.49999626,-10.15810000
218.99999625,-10.15563000
219.49999623,-10.03629000
219.99999622,-9.98154500
220.49999621,-9.99261800
220.99999619,-9.99507800
221.49999618,-9.99507800
221.99999616,-9.99507800
222.49999615,-9.99507800
222.99999614,-9.99753900
223.49999612,-10.00861000
223.99999611,-9.95632300
224.49999609,-9.84867000
224.99999608,-9.79330700
225.49999606,-9.79330700
225.99999605,-9.84867000
226.49999604,-9.95632300
226.99999602,-10.00615000
227.49999601,-9.98400600
227.99999599,-10.03383000
228.49999598,-10.14149000
228.99999597,-10.19685000
229.49999595,-10.19685000
229.99999594,-10.14149000
230.49999592,-10.03383000
230.99999591,-9.98708100
231.49999590,-10.01968000
231.99999588,-9.91818300
232.49999587,-9.70164800
232.99999585,-9.59215000
233.49999584,-9.59215000
233.99999582,-9.70718500
234.49999581,-9.94525100
234.99999580,-9.93971300
235.49999578,-9.68011800
235.99999577,-9.67704200
236.49999575,-9.92618100
236.99999574,-9.98400600
237.49999573,-9.85420700
237.99999571,-9.79330700
238.49999570,-9.79330700
238.99999568,-9.84867000
239.49999567,-9.95632300
239.99999565,-10.01169000
240.49999564,-10.01169000
240.99999563,-9.95386200
241.49999561,-9.83452200
241.99999560,-9.83759800
242.49999558,-9.96739700
242.99999557,-9.97047100
243.49999556,-9.85113100
243.99999554,-9.79084600
244.49999553,-9.77977300
244.99999551,-9.89234600
245.49999550,-10.13041000
245.99999549,-10.13041000
246.49999547,-9.89234600
246.99999546,-9.77977300
247.49999544,-9.79084600
247.99999543,-9.85113100
248.49999541,-9.97047100
248.99999540,-9.96739700
249.49999539,-9.83759800
249.99999537,-9.83452200
250.49999536,-9.95386200
250.99999534,-10.01169000
251.49999533,-10.01169000
251.99999532,-9.95632300
252.49999530,-9.84867000
252.99999529,-9.79638200
253.49999527,-9.80745600
253.99999526,-9.80745600
254.49999524,-9.79638200
254.99999523,-9.85420700
255.49999522,-9.98400600
255.99999520,-9.92618100
256.49999519,-9.67704200
256.99999517,-9.67704200
257.49999516,-9.92618100
257.99999515,-9.98400600
258.49999513,-9.85420700
258.99999512,-9.79330700
259.49999510,-9.79330700
259.99999509,-9.84867000
260.49999508,-9.95632300
260.99999506,-10.01169000
261.49999505,-10.01169000
261.99999503,-9.95386200
262.49999502,-9.83452200
262.99999500,-9.84005800
263.49999499,-9.98092900
263.99999498,-9.93171700
264.49999496,-9.70472400
264.99999495,-9.59215000
265.49999493,-9.59215000
265.99999492,-9.70472400
266.49999491,-9.93171700
266.99999489,-9.98646600
267.49999488,-9.86774200
267.99999486,-9.75762700
268.49999485,-9.66043300
268.99999483,-9.60814500
269.49999482,-9.60814500
269.99999481,-9.65797200
270.49999479,-9.74409400
270.99999478,-9.90895600
271.49999476,-10.14702000
271.99999475,-10.08920000
272.49999474,-9.73240600
272.99999472,-9.61983200
273.49999471,-9.74963100
273.99999469,-9.85912800
274.49999468,-9.94586600
274.99999466,-10.05536000
275.49999465,-10.18516000
275.99999464,-10.07259000
276.49999462,-9.71579600
276.99999461,-9.66104800
277.49999459,-9.90957200
277.99999458,-10.02215000
278.49999457,-10.00062000
278.99999455,-10.00062000
279.49999454,-10.02215000
279.99999452,-9.91510800
280.49999451,-9.68811500
280.99999450,-9.63336600
281.49999448,-9.75209100
281.99999447,-9.86220500
282.49999445,-9.95939900
282.99999444,-10.00861000
283.49999442,-9.99753900
283.99999441,-9.99507800
284.49999440,-9.99507800
284.99999438,-9.99261800
285.49999437,-9.98154500
285.99999435,-10.03629000
286.49999434,-10.15563000
286.99999433,-10.16117000
287.49999431,-10.06398000
287.99999430,-9.90711100
288.49999428,-9.71272100
288.99999427,-9.55339500
289.49999425,-9.44512700
289.99999424,-9.50049200
290.49999423,-9.71641300
290.99999421,-9.87327700
291.49999420,-9.94832700
291.99999418,-10.04737000
292.49999417,-10.14456000
292.99999416,-10.19931000
293.49999414,-10.21038000
293.99999413,-10.10335000
294.49999411,-9.88681100
294.99999410,-9.78531000
295.49999409,-9.81791200
295.99999407,-9.76870100
296.49999406,-9.64936000
296.99999404,-9.64689900
297.49999403,-9.75516700
297.99999401,-9.86774200
298.49999400,-9.98646600
298.99999399,-9.93171700
299.49999397,-9.70472400
299.99999396,-9.59461100
300.49999394,-9.60568300
300.99999393,-9.66350800
301.49999392,-9.77116100
301.99999390,-9.82098900
302.49999389,-9.79884200
302.99999387,-9.85113100
303.49999386,-9.97047100
303.99999384,-9.97047100
304.49999383,-9.85113100
304.99999382,-9.79330700
305.49999380,-9.79330700
305.99999379,-9.84867000
306.49999377,-9.95632300
306.99999376,-10.01169000
307.49999375,-10.01169000
307.99999373,-9.95386200
308.49999372,-9.83452200
308.99999370,-9.83452200
309.49999369,-9.95386200
309.99999368,-10.00861000
310.49999366,-9.99753900
310.99999365,-9.99753900
311.49999363,-10.00861000
311.99999362,-9.95632300
312.49999360,-9.84867000
312.99999359,-9.79084600
313.49999358,-9.77977300
313.99999356,-9.88988600
314.49999355,-10.11688000
314.99999353,-10.16917000
315.49999352,-10.03937000
315.99999351,-9.98400600
316.49999349,-10.00615000
316.99999348,-9.95632300
317.49999346,-9.84867000
317.99999345,-9.79638200
318.49999343,-9.80745600
318.99999342,-9.81237700
319.49999341,-9.82344900
319.99999339,-9.76870100
320.49999338,-9.64936000
320.99999336,-9.64936000
321.49999335,-9.76870100
321.99999334,-9.82652600
322.49999332,-9.82652600
322.99999331,-9.76870100
323.49999329,-9.64936000
323.99999328,-9.64689900
324.49999327,-9.75516700
324.99999325,-9.86220500
325.49999324,-9.95939900
325.99999322,-10.00615000
326.49999321,-9.98400600
326.99999319,-10.03629000
327.49999318,-10.15563000
327.99999317,-10.15563000
328.49999315,-10.03629000
328.99999314,-9.98400600
329.49999312,-10.00615000
329.99999311,-9.95939900
330.49999310,-9.86220500
330.99999308,-9.75762700
331.49999307,-9.66043300
331.99999305,-9.60814500
332.49999304,-9.60814500
332.99999302,-9.66350800
333.49999301,-9.77116100
333.99999300,-9.82098900
334.49999298,-9.79884200
334.99999297,-9.85420700
335.49999295,-9.98400600
335.99999294,-9.93171700
336.49999293,-9.70472400
336.99999291,-9.59215000
337.49999290,-9.59215000
337.99999288,-9.69918700
338.49999287,-9.90403500
338.99999285,-10.06644000
339.49999284,-10.17470000
339.99999283,-10.11688000
340.49999281,-9.88988600
340.99999280,-9.77977300
341.49999278,-9.79084600
341.99999277,-9.84559500
342.49999276,-9.94279000
342.99999274,-10.05290000
343.49999273,-10.17163000
343.99999271,-10.11688000
344.49999270,-9.88988600
344.99999269,-9.77977300
345.49999267,-9.79084600
345.99999266,-9.84867000
346.49999264,-9.95632300
346.99999263,-10.01169000
347.49999261,-10.01169000
347.99999260,-9.95939900
348.49999259,-9.86220500
348.99999257,-9.75516700
349.49999256,-9.64689900
349.99999254,-9.64689900
350.49999253,-9.75516700
350.99999252,-9.86220500
351.49999250,-9.95939900
351.99999249,-10.00861000
352.49999247,-9.99753900
352.99999246,-9.99507800
353.49999244,-9.99507800
353.99999243,-9.99507800
354.49999242,-9.99507800
354.99999240,-9.99753900
355.49999239,-10.00861000
355.99999237,-9.95386200
356.49999236,-9.83452200
356.99999235,-9.83759800
357.49999233,-9.96739700
357.99999232,-9.96739700
358.49999230,-9.83759800
358.99999229,-9.83759800
359.49999228,-9.96739700
359.99999226,-9.96739700
360.49999225,-9.83759800
360.99999223,-9.83452200
361.49999222,-9.95386200
361.99999220,-10.01169000
362.49999219,-10.01169000
362.99999218,-9.95939900
363.49999216,-9.86220500
363.99999215,-9.75762700
364.49999213,-9.66043300
364.99999212,-9.60568300
365.49999211,-9.59461100
365.99999209,-9.69918700
366.49999208,-9.90403500
366.99999206,-10.06398000
367.49999205,-10.16117000
367.99999203,-10.16117000
368.49999202,-10.06398000
368.99999201,-9.89603700
369.49999199,-9.65797200
369.99999198,-9.71579600
370.49999196,-10.07259000
370.99999195,-10.18270000
371.49999194,-10.04183000
371.99999192,-9.98154500
372.49999191,-9.99261800
372.99999189,-9.99507800
373.49999188,-9.99507800
373.99999187,-9.99753900
374.49999185,-10.00861000
374.99999184,-9.95386200
375.49999182,-9.83452200
375.99999181,-9.84005800
376.49999179,-9.98092900
376.99999178,-9.92618100
377.49999177,-9.67704200
377.99999175,-9.67704200
378.49999174,-9.92618100
378.99999172,-9.98092900
379.49999171,-9.84005800
379.99999170,-9.83452200
380.49999168,-9.95386200
380.99999167,-10.01169000
381.49999165,-10.01169000
381.99999164,-9.95386200
382.49999162,-9.83452200
382.99999161,-9.84005800
383.49999160,-9.98092900
383.99999158,-9.93171700
384.49999157,-9.70472400
384.99999155,-9.59215000
385.49999154,-9.59215000
385.99999153,-9.70472400
386.49999151,-9.93171700
386.99999150,-9.98400600
387.49999148,-9.85420700
387.99999147,-9.79330700
388.49999145,-9.79330700
388.99999144,-9.84867000
389.49999143,-9.95632300
389.99999141,-10.00615000
390.49999140,-9.98400600
390.99999138,-10.03629000
391.49999137,-10.15563000
391.99999136,-10.16363000
392.49999134,-10.07751000
392.99999133,-9.86281900
393.49999131,-9.53863100
393.99999130,-9.43466900
394.49999129,-9.56446800
394.99999127,-9.67704200
395.49999126,-9.77423700
395.99999124,-9.82344900
396.49999123,-9.81237700
396.99999121,-9.81237700
397.49999120,-9.82344900
397.99999119,-9.76870100
398.49999117,-9.64936000
398.99999116,-9.65243500
399.49999114,-9.78223300
399.99999113,-9.78531000
400.49999112,-9.66596900
400.99999110,-9.60568300
401.49999109,-9.59461100
401.99999107,-9.70164800
402.49999106,-9.91818300
402.99999104,-10.02215000
403.49999103,-10.00062000
403.99999102,-9.99507800
404.49999100,-9.99507800
404.99999099,-9.99507800
405.49999097,-9.99507800
405.99999096,-9.99261800
406.49999095,-9.98154500
406.99999093,-10.04183000
407.49999092,-10.18270000
407.99999090,-10.07812000
408.49999089,-9.74286400
408.99999088,-9.58107800
409.49999086,-9.60260800
409.99999085,-9.66350800
410.49999083,-9.77116100
410.99999082,-9.82652600
411.49999080,-9.82652600
411.99999079,-9.77116100
412.49999078,-9.66350800
412.99999076,-9.61122000
413.49999075,-9.62229300
413.99999073,-9.61921700
414.49999072,-9.59768700
414.99999071,-9.70718500
415.49999069,-9.94525100
415.99999068,-9.94279000
416.49999066,-9.69365100
416.99999065,-9.63029000
417.49999063,-9.73855800
417.99999062,-9.90342000
418.49999061,-10.11934000
418.99999059,-10.17470000
419.49999058,-10.06644000
419.99999056,-9.89849900
420.49999055,-9.67150600
420.99999054,-9.67458200
421.49999052,-9.91264700
421.99999051,-10.01968000
422.49999049,-9.98708100
422.99999048,-10.03629000
423.49999047,-10.15563000
423.99999045,-10.15810000
424.49999044,-10.04983000
424.99999042,-9.93725300
425.49999041,-9.81852800
425.99999039,-9.87635300
426.49999038,-10.11380000
426.99999037,-10.17163000
427.49999035,-10.05290000
427.99999034,-9.94832700
428.49999032,-9.87327700
428.99999031,-9.71333600
429.49999030,-9.48634300
429.99999028,-9.48634300
430.49999027,-9.71333600
430.99999025,-9.88127400
431.49999024,-9.98954200
431.99999022,-9.92864100
432.49999021,-9.69119100
432.99999020,-9.63336600
433.49999018,-9.75209100
433.99999017,-9.86774200
434.49999015,-9.98646600
434.99999014,-9.93171700
435.49999013,-9.70472400
435.99999011,-9.59461100
436.49999010,-9.60568300
436.99999008,-9.66043300
437.49999007,-9.75762700
437.99999006,-9.86466500
438.49999004,-9.97293300
438.99999003,-9.96739700
439.49999001,-9.83759800
439.99999000,-9.83452200
440.49998998,-9.95386200
440.99998997,-10.00861000
441.49998996,-9.99753900
441.99998994,-9.99753900
442.49998993,-10.00861000
442.99998991,-9.95939900
443.49998990,-9.86220500
443.99998989,-9.75762700
444.49998987,-9.66043300
444.99998986,-9.60568300
445.49998984,-9.59461100
445.99998983,-9.70164800
446.49998981,-9.91818300
446.99998980,-10.02215000
447.49998979,-10.00062000
447.99998977,-9.99507800
448.49998976,-9.99507800
448.99998974,-9.99507800
449.49998973,-9.99507800
449.99998972,-9.99507800
450.49998970,-9.99507800
450.99998969,-9.99753900
451.49998967,-10.00861000
451.99998966,-9.95078800
452.49998964,-9.82098900
452.99998963,-9.87327700
453.49998962,-10.10027000
453.99998960,-10.21038000
454.49998959,-10.19931000
454.99998957,-10.14456000
455.49998956,-10.04737000
455.99998955,-9.94279000
456.49998953,-9.84559500
456.99998952,-9.79330700
457.49998950,-9.79330700
457.99998949,-9.84867000
458.49998948,-9.95632300
458.99998946,-10.01169000
459.49998945,-10.01169000
459.99998943,-9.95632300
460.49998942,-9.84867000
460.99998940,-9.79638200
461.49998939,-9.80745600
461.99998938,-9.80437900
462.49998936,-9.78284900
462.99998935,-9.89542300
463.49998933,-10.14395000
463.99998932,-10.08920000
464.49998931,-9.73240600
464.99998929,-9.61983200
465.49998928,-9.74963100
465.99998926,-9.86220500
466.49998925,-9.95939900
466.99998923,-10.00861000
467.49998922,-9.99753900
467.99998921,-9.99261800
468.49998919,-9.98154500
468.99998918,-10.03629000
469.49998916,-10.15563000
469.99998915,-10.15563000
470.49998914,-10.03629000
470.99998912,-9.98708100
471.49998911,-10.01968000
471.99998909,-9.91510800
472.49998908,-9.68811500
472.99998907,-9.63029000
473.49998905,-9.73855800
473.99998904,-9.90895600
474.49998902,-10.14702000
474.99998901,-10.08612000
475.49998899,-9.71887300
475.99998898,-9.66658400
476.49998897,-9.93725300
476.99998895,-9.93971300
477.49998894,-9.68011800
477.99998892,-9.67150600
478.49998891,-9.89849900
478.99998890,-10.06644000
479.49998888,-10.17470000
479.99998887,-10.11934000
480.49998885,-9.90342000
480.99998884,-9.74101800
481.49998882,-9.64382400
481.99998881,-9.64936000
482.49998880,-9.76870100
482.99998878,-9.82098900
483.49998877,-9.79884200
483.99998875,-9.84313500
484.49998874,-9.92925600
484.99998873,-10.09166000
485.49998871,-10.31865000
485.99998870,-10.31865000
486.49998868,-10.09166000
486.99998867,-9.93171700
487.49998866,-9.85666800
487.99998864,-9.75516700
488.49998863,-9.64689900
488.99998861,-9.64382400
489.49998860,-9.74101800
489.99998858,-9.89788300
490.49998857,-10.09227000
490.99998856,-10.25160000
491.49998854,-10.35987000
491.99998853,-10.30450000
492.49998851,-10.08858000
492.99998850,-9.93171700
493.49998849,-9.85666800
493.99998847,-9.75209100
494.49998846,-9.63336600
494.99998844,-9.69365100
495.49998843,-9.94279000
495.99998841,-9.94279000
496.49998840,-9.69365100
496.99998839,-9.63029000
497.49998837,-9.73855800
497.99998836,-9.89788300
498.49998834,-10.09227000
498.99998833,-10.25160000
499.49998832,-10.35987000
499.99998830,-10.30450000
500.49998829,-10.08858000
500.99998827,-9.93171700
501.49998826,-9.85666800
501.99998824,-9.75209100
502.49998823,-9.63336600
502.99998822,-9.68811500
503.49998820,-9.91510800
503.99998819,-10.02522000
504.49998817,-10.01415000
504.99998816,-9.95386200
505.49998815,-9.83452200
505.99998813,-9.83759800
506.49998812,-9.96739700
506.99998810,-9.97047100
507.49998809,-9.85113100
507.99998808,-9.79638200
508.49998806,-9.80745600
508.99998805,-9.80991600
509.49998803,-9.80991600
509.99998802,-9.80991600
510.49998800,-9.80991600
510.99998799,-9.81545200
511.49998798,-9.83698400
511.99998796,-9.72748500
512.49998795,-9.48941900
512.99998793,-9.48941900
513.49998792,-9.72748500
513.99998791,-9.83452200
514.49998789,-9.80191900
514.99998788,-9.84867000
515.49998786,-9.95632300
515.99998785,-10.00615000
516.49998783,-9.98400600
516.99998782,-10.03629000
517.49998781,-10.15563000
517.99998779,-10.15563000
518.49998778,-10.03629000
518.99998776,-9.98154500
519.49998775,-9.99261800
519.99998774,-9.99753900
520.49998772,-10.00861000
520.99998771,-9.95386200
521.49998769,-9.83452200
521.99998768,-9.84005800
522.49998767,-9.98092900
522.99998765,-9.93171700
523.49998764,-9.70472400
523.99998762,-9.59461100
524.49998761,-9.60568300
524.99998759,-9.66043300
525.49998758,-9.75762700
525.99998757,-9.86466500
526.49998755,-9.97293300
526.99998754,-9.97600800
527.49998752,-9.87881400
527.99998751,-9.71641300
528.49998750,-9.50049200
528.99998748,-9.44820400
529.49998747,-9.56692900
529.99998745,-9.67950200
530.49998744,-9.78777000
530.99998742,-9.78531000
531.49998741,-9.66596900
531.99998740,-9.60260800
532.49998738,-9.58107800
532.99998737,-9.74040300
533.49998735,-10.06459000
533.99998734,-10.22392000
534.49998733,-10.20239000
534.99998731,-10.14702000
535.49998730,-10.06090000
535.99998728,-9.90157400
536.49998727,-9.68565500
536.99998726,-9.63336600
537.49998724,-9.75209100
537.99998723,-9.86220500
538.49998721,-9.95939900
538.99998720,-10.00861000
539.49998718,-9.99753900
539.99998717,-9.99753900
540.49998716,-10.00861000
540.99998714,-9.95386200
541.49998713,-9.83452200
541.99998711,-9.83452200
542.49998710,-9.95386200
542.99998709,-10.01415000
543.49998707,-10.02522000
543.99998706,-9.91818300
544.49998704,-9.70164800
544.99998703,-9.59215000
545.49998701,-9.59215000
545.99998700,-9.70164800
546.49998699,-9.91818300
546.99998697,-10.02768000
547.49998696,-10.02768000
547.99998694,-9.91510800
548.49998693,-9.68811500
548.99998692,-9.63582600
549.49998690,-9.76562400
549.99998689,-9.82098900
550.49998687,-9.79884200
550.99998686,-9.85420700
551.49998685,-9.98400600
551.99998683,-9.92864100
552.49998682,-9.69119100
552.99998680,-9.63890200
553.49998679,-9.77977300
553.99998677,-9.78777000
554.49998676,-9.67950200
554.99998675,-9.57000400
555.49998673,-9.46173700
555.99998672,-9.46419700
556.49998670,-9.58353800
556.99998669,-9.63275100
557.49998668,-9.60014700
557.99998666,-9.69918700
558.49998665,-9.90403500
558.99998663,-10.06398000
559.49998662,-10.16117000
559.99998660,-10.15563000
560.49998659,-10.03629000
560.99998658,-9.98154500
561.49998656,-9.99261800
561.99998655,-9.99507800
562.49998653,-9.99507800
562.99998652,-9.99261800
563.49998651,-9.98154500
563.99998649,-10.03629000
564.49998648,-10.15563000
564.99998646,-10.15563000
565.49998645,-10.03629000
565.99998643,-9.97600800
566.49998642,-9.96493600
566.99998641,-10.07505000
567.49998639,-10.30204000
567.99998638,-10.36540000
568.49998636,-10.27867000
568.99998635,-10.00431000
569.49998634,-9.55032000
569.99998632,-9.49495500
570.49998631,-9.84128900
570.99998629,-10.11872000
571.49998628,-10.32419000
571.99998627,-10.35125000
572.49998625,-10.25529000
572.99998624,-9.49987600
573.49998622,-8.24803200
573.99998621,-6.95435500
574.49998619,-5.82185000
574.99998618,-5.14087100
575.49998617,-5.10949800
575.99998615,-4.79146100
576.49998614,-4.32701800
576.99998612,-3.81889700
577.49998611,-3.36614200
577.99998610,-2.97121000
578.49998608,-2.73376000
578.99998607,-2.45078700
579.49998605,-2.22502400
579.99998604,-1.78026600
580.49998602,-1.22970000
580.99998601,-0.62069390
581.49998600,-0.07074311
581.99998598,0.38508860
582.49998597,0.65452750
582.99998595,0.74803140
583.49998594,0.62930610
583.99998593,0.48597440
584.49998591,0.36786420
584.99998590,-0.13718010
585.49998588,-0.92458160
585.99998587,-1.61909400
586.49998586,-2.15920300
586.99998584,-1.99434100
587.49998583,-1.13004400
587.99998581,-0.42199800
588.49998580,0.09596457
588.99998578,0.04921259
589.49998577,-0.54379920
589.99998576,-1.39517700
590.49998574,-2.42126000
590.99998573,-2.89370100
591.49998571,-2.75283000
591.99998570,-2.29392200
592.49998569,-1.49421800
592.99998567,-1.38410400
593.49998566,-1.96788900
593.99998564,-2.39911400
594.49998563,-2.64702200
594.99998561,-2.88877900
595.49998560,-3.05056600
595.99998559,-3.25910400
596.49998557,-3.48609700
596.99998556,-3.44488200
597.49998554,-3.16437000
597.99998553,-2.69992600
598.49998552,-2.12783000
598.99998550,-1.59202800
599.49998549,-1.13865600
599.99998547,-1.32258900
600.49998546,-2.06692900
600.99998545,-3.26156500
601.49998543,-4.72994600
601.99998542,-5.82308100
602.49998540,-6.38410400
602.99998539,-6.31828300
603.49998537,-5.60531500
603.99998536,-4.72379400
604.49998535,-3.80720900
604.99998533,-2.87032500
605.49998532,-2.04908900
605.99998530,-1.92544300
606.49998529,-2.47600900
606.99998528,-3.67372000
607.49998526,-5.34633400
607.99998525,-6.70890700
608.49998523,-7.58304600
608.99998522,-7.62118600
609.49998520,-6.79010800
609.99998519,-5.72711600
610.49998518,-4.53924700
610.99998516,-3.81151600
611.49998515,-3.64972900
611.99998513,-3.92162900
612.49998512,-4.61306600
612.99998511,-5.39616200
613.49998509,-6.16203200
613.99998508,-6.66707700
614.49998506,-6.80733300
614.99998505,-6.85408400
615.49998503,-6.78949300
615.99998502,-6.40440400
616.49998501,-5.71296700
616.99998499,-5.62992100
617.49998498,-6.10482200
617.99998496,-6.99495500
618.49998495,-8.18282400
618.99998494,-9.07787800
619.49998492,-9.57431000
619.99998491,-9.43159500
620.49998489,-8.69832600
620.99998488,-7.37450700
621.49998487,-5.60346900
621.99998485,-4.77915800
622.49998484,-4.92987200
622.99998482,-6.25922700
623.49998481,-8.63496500
623.99998479,-10.26636000
624.49998478,-10.95595000
624.99998477,-10.98364000
625.49998475,-10.29281000
625.99998474,-9.20275500
626.49998472,-7.87524600
626.99998471,-6.62586100
627.49998470,-5.63299700
627.99998468,-5.42138200
628.49998467,-6.01439400
628.99998465,-7.10506900
629.49998464,-8.52915800
629.99998462,-9.93848300
630.49998461,-11.13681000
630.99998460,-11.46100000
631.49998458,-10.88890000
631.99998457,-9.56262200
632.49998455,-7.61872500
632.99998454,-6.39886800
633.49998453,-6.03223400
633.99998451,-6.52128400
634.49998450,-7.83833600
634.99998448,-9.15169700
635.49998447,-10.29527000
635.99998446,-10.96026000
636.49998444,-11.02485000
636.99998443,-10.65084000
637.49998441,-9.87389300
637.99998440,-8.99175600
638.49998438,-8.13914800
638.99998437,-7.51599400
639.49998436,-7.21395200
639.99998434,-7.41756900
640.49998433,-8.08624500
640.99998431,-9.03912400
641.49998430,-10.17347000
641.99998429,-10.65391000
642.49998427,-10.43799000
642.99998426,-9.74532400
643.49998424,-8.64419300
643.99998423,-7.74052600
644.49998421,-7.12536900
644.99998420,-7.22687000
645.49998419,-8.02596000
645.99998417,-9.08341500
646.49998416,-10.28174000
646.99998414,-10.95165000
647.49998413,-10.98364000
647.99998412,-10.75541000
648.49998410,-10.25898000
648.99998409,-9.73671200
649.49998407,-9.26242600
649.99998406,-8.95177200
650.49998405,-8.85519100
650.99998403,-9.00283000
651.49998402,-9.35900500
651.99998400,-9.97662400
652.49998399,-10.75357000
652.99998397,-11.37980000
653.49998396,-11.76858000
653.99998395,-11.77165000
654.49998393,-11.39333000
654.99998392,-10.72035000
655.49998390,-9.85728400
655.99998389,-9.07480300
656.49998388,-8.48117600
656.99998386,-8.37659800
657.49998385,-8.77645100
657.99998383,-9.47404000
658.49998382,-10.41339000
658.99998380,-10.82862000
659.49998379,-10.65514000
659.99998378,-10.42138000
660.49998376,-10.10827000
660.99998375,-9.95939900
661.49998373,-10.01415000
661.99998372,-9.91510800
662.49998371,-9.68811500
662.99998369,-9.63336600
663.49998368,-9.75209100
663.99998366,-9.86220500
664.49998365,-9.95939900
664.99998364,-10.01169000
665.49998362,-10.01169000
665.99998361,-9.96186000
666.49998359,-9.87573700
666.99998358,-9.71887300
667.49998356,-9.51402500
667.99998355,-9.40391200
668.49998354,-9.39283900
668.99998352,-9.55524100
669.49998351,-9.87942800
669.99998349,-10.03322000
670.49998348,-9.98954200
670.99998347,-10.04737000
671.49998345,-10.20977000
671.99998344,-10.01784000
672.49998342,-9.53186400
672.99998341,-8.95484600
673.49998339,-8.36121900
673.99998338,-8.04810400
674.49998337,-8.05917800
674.99998335,-8.31754400
675.49998334,-8.78137300
675.99998332,-9.39407000
676.49998331,-10.04121000
676.99998330,-10.65883000
677.49998328,-11.14481000
677.99998327,-11.29552000
678.49998325,-11.08022000
678.99998324,-10.71174000
679.49998322,-10.23684000
679.99998321,-9.77239100
680.49998320,-9.39468400
680.99998318,-9.18061000
681.49998317,-9.14800600
681.99998315,-9.51033400
682.49998314,-10.21223000
682.99998313,-10.83907000
683.49998311,-11.30229000
683.99998310,-11.56065000
684.49998308,-11.57173000
684.99998307,-11.25307000
685.49998306,-10.63730000
685.99998304,-10.15686000
686.49998303,-9.85420700
686.99998301,-9.92310400
687.49998300,-10.38816000
687.99998298,-10.61331000
688.49998297,-10.60285000
688.99998296,-10.43738000
689.49998294,-10.12426000
689.99998293,-9.91264700
690.49998291,-9.82652600
690.99998290,-9.83206100
691.49998289,-9.94033000
691.99998287,-10.03875000
692.49998286,-10.10335000
692.99998284,-10.31250000
693.49998283,-10.63669000
693.99998281,-10.74372000
694.49998280,-10.62500000
694.99998279,-10.46813000
695.49998277,-10.29527000
695.99998276,-10.03998000
696.49998274,-9.74840100
696.99998273,-9.53678600
697.49998272,-9.42913300
697.99998270,-9.54416800
698.49998269,-9.89050200
698.99998267,-9.99999900
699.49998266,-9.87020200
699.99998265,-9.76316400
700.49998263,-9.68811500
700.99998262,-9.53678600
701.49998260,-9.34239600
701.99998259,-9.18614600
702.49998257,-9.08895100
702.99998256,-9.08895100
703.49998255,-9.18614600
703.99998253,-9.33686000
704.49998252,-9.50971900
704.99998250,-9.76193300
705.49998249,-10.04306000
705.99998248,-10.30389000
706.49998246,-10.50935000
706.99998245,-10.50627000
707.49998243,-10.29035000
707.99998242,-10.06767000
708.49998240,-9.84067400
708.99998239,-9.89542300
709.49998238,-10.23068000
709.99998236,-10.43922000
710.49998235,-10.49274000
710.99998233,-10.64715000
711.49998232,-10.87414000
711.99998231,-10.87660000
712.49998229,-10.66068000
712.99998228,-10.44906000
713.49998226,-10.26575000
713.99998225,-10.11134000
714.49998224,-10.01415000
714.99998222,-10.01968000
715.49998221,-10.13902000
715.99998219,-10.19377000
716.49998218,-10.18270000
716.99998216,-10.18270000
717.49998215,-10.19377000
717.99998214,-10.14149000
718.49998212,-10.03383000
718.99998211,-9.97846900
719.49998209,-9.97846900
719.99998208,-10.02522000
720.49998207,-10.10089000
720.99998205,-10.30389000
721.49998204,-10.59547000
721.99998202,-10.86183000
722.49998201,-11.07775000
722.99998199,-11.02793000
723.49998198,-10.72650000
723.99998197,-10.35249000
724.49998195,-9.94217400
724.99998194,-9.79084600
725.49998192,-9.93171700
725.99998191,-10.04737000
726.49998190,-10.14456000
726.99998188,-10.20239000
727.49998187,-10.22392000
727.99998185,-10.06705000
728.49998184,-9.75393700
728.99998182,-9.54785900
729.49998181,-9.48326700
729.99998180,-9.38176600
730.49998178,-9.26304100
730.99998177,-9.30979300
731.49998175,-9.50418300
731.99998174,-9.77854300
732.49998173,-10.12488000
732.99998171,-10.07812000
733.49998170,-9.65674200
733.99998168,-9.22797700
734.49998167,-8.82874000
734.99998166,-8.67249000
735.49998164,-8.78075700
735.99998163,-9.03604800
736.49998161,-9.39160900
736.99998160,-9.89973000
737.49998158,-10.46075000
737.99998157,-10.98548000
738.49998156,-11.40625000
738.99998154,-11.35150000
739.49998153,-10.82246000
739.99998151,-10.29774000
740.49998150,-9.84436500
740.99998149,-9.43836000
741.49998147,-9.15784900
741.99998146,-9.05327200
742.49998144,-9.13939400
742.99998143,-9.46050600
743.49998141,-9.99015700
743.99998140,-10.25960000
744.49998139,-10.24852000
744.99998137,-10.02584000
745.49998136,-9.59399600
745.99998134,-9.38238100
746.49998133,-9.41498600
746.99998132,-9.47280900
747.49998130,-9.55893100
747.99998129,-9.71579600
748.49998127,-9.92064400
748.99998126,-10.02522000
749.49998125,-10.01415000
749.99998123,-9.96186000
750.49998122,-9.87573700
750.99998120,-9.71641300
751.49998119,-9.50049200
751.99998117,-9.43959000
752.49998116,-9.52632800
752.99998115,-9.77608200
753.49998113,-10.13226000
753.99998112,-10.65945000
754.49998110,-11.29675000
754.99998109,-11.46161000
755.49998108,-11.14850000
755.99998106,-10.61823000
756.49998105,-9.92741100
756.99998103,-9.40514200
757.49998102,-9.12524500
757.99998100,-9.13324300
758.49998099,-9.44635800
758.99998098,-9.81729800
759.49998096,-10.20608000
759.99998095,-10.46137000
760.49998093,-10.53642000
760.99998092,-10.53396000
761.49998091,-10.44783000
761.99998089,-10.24422000
762.49998088,-9.96370500
762.99998086,-9.65059000
763.49998085,-9.34793300
763.99998084,-9.23843500
764.49998082,-9.32455600
764.99998081,-9.64320900
765.49998079,-10.16179000
765.99998078,-10.47490000
766.49998076,-10.53949000
766.99998075,-10.53642000
767.49998074,-10.46137000
767.99998072,-10.19500000
768.49998071,-9.76254900
768.99998069,-9.60568300
769.49998068,-9.74655400
769.99998067,-9.86220500
770.49998065,-9.95939900
770.99998064,-10.01415000
771.49998062,-10.02522000
771.99998061,-9.92064400
772.49998059,-9.71579600
772.99998058,-9.56446800
773.49998057,-9.49987600
773.99998055,-9.34608700
774.49998054,-9.13078200
774.99998052,-9.07541800
775.49998051,-9.18307000
775.99998050,-9.34239600
776.49998048,-9.53678600
776.99998047,-9.69057600
777.49998045,-9.77669800
777.99998044,-9.83206100
778.49998043,-9.85359300
778.99998041,-9.69180600
779.49998040,-9.35654400
779.99998038,-9.24397100
780.49998037,-9.35162400
780.99998035,-9.56323800
781.49998034,-9.85482300
781.99998033,-10.10765000
782.49998031,-10.26944000
782.99998030,-10.47798000
783.49998028,-10.70497000
783.99998027,-10.64715000
784.49998026,-10.30143000
784.99998024,-10.13103000
785.49998023,-10.13103000
785.99998021,-10.29835000
786.49998020,-10.63361000
786.99998018,-10.74372000
787.49998017,-10.62500000
787.99998016,-10.45952000
788.49998014,-10.25467000
788.99998013,-10.15317000
789.49998011,-10.17470000
789.99998010,-10.18024000
790.49998009,-10.18024000
790.99998007,-10.18270000
791.49998006,-10.19377000
791.99998004,-10.14456000
792.49998003,-10.04737000
792.99998001,-9.94033000
793.49998000,-9.83206100
793.99997999,-9.84313500
794.49997997,-9.99446300
794.99997996,-9.89050200
795.49997994,-9.54416800
795.99997993,-9.43713000
796.49997992,-9.57800100
796.99997990,-9.63828700
797.49997989,-9.62721400
797.99997987,-9.62229300
798.49997986,-9.61122000
798.99997985,-9.67150600
799.49997983,-9.81237700
799.99997982,-9.70533900
800.49997980,-9.35900500
800.99997979,-9.24950800
801.49997977,-9.37930500
801.99997976,-9.49434000
802.49997975,-9.60260800
802.99997973,-9.60260800
803.49997972,-9.49434000
803.99997970,-9.38484200
804.49997969,-9.27657400
804.99997968,-9.27349900
805.49997966,-9.37069300
805.99997965,-9.52755900
806.49997963,-9.72194900
806.99997962,-9.88127400
807.49997960,-9.98954200
807.99997959,-9.92864100
808.49997958,-9.69119100
808.99997956,-9.63582600
809.49997955,-9.76562400
809.99997953,-9.82344900
810.49997952,-9.81237700
810.99997951,-9.80437900
811.49997949,-9.78284900
811.99997948,-9.88435100
812.49997946,-10.08920000
812.99997945,-10.24360000
813.49997944,-10.31865000
813.99997942,-10.41462000
814.49997941,-10.50135000
814.99997939,-10.60839000
815.49997938,-10.72712000
815.99997936,-10.67483000
816.49997935,-10.45891000
816.99997934,-10.29404000
817.49997932,-10.18578000
817.99997931,-10.24668000
818.49997929,-10.48413000
818.99997928,-10.54195000
819.49997927,-10.42323000
819.99997925,-10.30758000
820.49997924,-10.18885000
820.99997922,-10.24668000
821.49997921,-10.48413000
821.99997919,-10.53396000
822.49997918,-10.38201000
822.99997917,-10.43430000
823.49997915,-10.68344000
823.99997914,-10.69451000
824.49997912,-10.48905000
824.99997911,-10.21961000
825.49997910,-9.90649500
825.99997908,-9.81299100
826.49997907,-9.97539300
826.99997905,-9.92864100
827.49997904,-9.69119100
827.99997903,-9.63582600
828.49997901,-9.76562400
828.99997900,-9.82344900
829.49997898,-9.81237700
829.99997897,-9.81237700
830.49997895,-9.82344900
830.99997894,-9.77669800
831.49997893,-9.69057600
831.99997891,-9.53125000
832.49997890,-9.31532900
832.99997888,-9.26304100
833.49997887,-9.38176600
833.99997886,-9.49187900
834.49997884,-9.58907400
834.99997883,-9.64136300
835.49997881,-9.64136300
835.99997880,-9.58046200
836.49997878,-9.45066500
836.99997877,-9.49741600
837.49997876,-9.70287800
837.99997874,-9.91141600
838.49997873,-10.09473000
838.99997871,-10.24914000
839.49997870,-10.34633000
839.99997869,-10.34080000
840.49997867,-10.22146000
840.99997866,-10.16671000
841.49997864,-10.17778000
841.99997863,-10.18578000
842.49997861,-10.20731000
842.99997860,-10.10027000
843.49997859,-9.87327700
843.99997857,-9.81545200
844.49997856,-9.92372000
844.99997854,-10.08612000
845.49997853,-10.29097000
845.99997852,-10.39247000
846.49997850,-10.37094000
846.99997849,-10.37094000
847.49997847,-10.39247000
847.99997846,-10.28851000
848.49997845,-10.07197000
848.99997843,-9.96493600
849.49997842,-9.97600800
849.99997840,-10.03076000
850.49997839,-10.12795000
850.99997837,-10.23499000
851.49997836,-10.34326000
851.99997835,-10.34326000
852.49997833,-10.23499000
852.99997832,-10.12549000
853.49997830,-10.01722000
853.99997829,-10.01722000
854.49997828,-10.12549000
854.99997826,-10.23499000
855.49997825,-10.34326000
855.99997823,-10.34633000
856.49997822,-10.24914000
856.99997820,-10.09227000
857.49997819,-9.89788300
857.99997818,-9.74655400
858.49997816,-9.67150600
858.99997815,-9.57000400
859.49997813,-9.46173700
859.99997812,-9.46419700
860.49997811,-9.58353800
860.99997809,-9.63582600
861.49997808,-9.61368100
861.99997806,-9.66043300
862.49997805,-9.75762700
862.99997804,-9.87020200
863.49997802,-9.99999900
863.99997801,-9.89296200
864.49997799,-9.55770100
864.99997798,-9.39591400
865.49997796,-9.41744600
865.99997795,-9.47280900
866.49997794,-9.55893100
866.99997792,-9.71579600
867.49997791,-9.92064400
867.99997789,-10.02215000
868.49997788,-10.00062000
868.99997787,-9.99753900
869.49997785,-10.00861000
869.99997784,-9.95386200
870.49997782,-9.83452200
870.99997781,-9.83206100
871.49997779,-9.94033000
871.99997778,-10.04737000
872.49997777,-10.14456000
872.99997775,-10.19377000
873.49997774,-10.18270000
873.99997772,-10.18824000
874.49997771,-10.22146000
874.99997770,-10.06705000
875.49997768,-9.75393700
875.99997767,-9.54232200
876.49997765,-9.45620000
876.99997764,-9.45866100
877.49997763,-9.55585600
877.99997761,-9.71026000
878.49997760,-9.89357700
878.99997758,-10.10765000
879.49997757,-10.33464000
879.99997755,-10.28236000
880.49997754,-9.95816900
880.99997753,-9.68626900
881.49997751,-9.48080600
881.99997750,-9.48634300
882.49997748,-9.71333600
882.99997747,-9.87573700
883.49997746,-9.96186000
883.99997744,-10.00615000
884.49997743,-9.98400600
884.99997741,-10.03629000
885.49997740,-10.15563000
885.99997738,-10.15563000
886.49997737,-10.03629000
886.99997736,-9.98400600
887.49997734,-10.00615000
887.99997733,-9.95386200
888.49997731,-9.83452200
888.99997730,-9.83452200
889.49997729,-9.95386200
889.99997727,-10.01169000
890.49997726,-10.01169000
890.99997724,-9.96493600
891.49997723,-9.88927200
891.99997722,-9.67765700
892.49997720,-9.35347000
892.99997719,-9.24950800
893.49997717,-9.37930500
893.99997716,-9.48634300
894.49997714,-9.56139200
894.99997713,-9.71825700
895.49997712,-9.93417800
895.99997710,-9.98646600
896.49997709,-9.86774200
896.99997707,-9.75762700
897.49997706,-9.66043300
897.99997705,-9.60814500
898.49997703,-9.60814500
898.99997702,-9.66043300
899.49997700,-9.75762700
899.99997699,-9.85912800
900.49997697,-9.94586600
900.99997696,-10.04983000
901.49997695,-10.15810000
901.99997693,-10.15563000
902.49997692,-10.03629000
