Time,Channel B
(ns),(mV)

-100.99999470,-9.64689900
-100.49999472,-9.75516700
-99.99999473,-9.86466500
-99.49999474,-9.97293300
-98.99999476,-9.97293300
-98.49999477,-9.86466500
-97.99999479,-9.75516700
-97.49999480,-9.64689900
-96.99999481,-9.64689900
-96.49999483,-9.75516700
-95.99999484,-9.86220500
-95.49999486,-9.95939900
-94.99999487,-10.00861000
-94.49999488,-9.99753900
-93.99999490,-9.99507800
-93.49999491,-9.99507800
-92.99999493,-9.99507800
-92.49999494,-9.99507800
-91.99999496,-9.99753900
-91.49999497,-10.00861000
-90.99999498,-9.95632300
-90.49999500,-9.84867000
-89.99999501,-9.79638200
-89.49999503,-9.80745600
-88.99999504,-9.80745600
-88.49999505,-9.79638200
-87.99999507,-9.84867000
-87.49999508,-9.95632300
-86.99999510,-10.00861000
-86.49999511,-9.99753900
-85.99999513,-9.99261800
-85.49999514,-9.98154500
-84.99999515,-10.03629000
-84.49999517,-10.15563000
-83.99999518,-10.15810000
-83.49999520,-10.04983000
-82.99999521,-9.94586600
-82.49999522,-9.85912800
-81.99999524,-9.75762700
-81.49999525,-9.66043300
-80.99999527,-9.60568300
-80.49999528,-9.59461100
-79.99999529,-9.70472400
-79.49999531,-9.93171700
-78.99999532,-9.98092900
-78.49999534,-9.84005800
-77.99999535,-9.83452200
-77.49999537,-9.95386200
-76.99999538,-10.01415000
-76.49999539,-10.02522000
-75.99999541,-9.90957200
-75.49999542,-9.66104800
-74.99999544,-9.72133400
-74.49999545,-10.10027000
-73.99999546,-10.10027000
-73.49999548,-9.72133400
-72.99999549,-9.66104800
-72.49999551,-9.90957200
-71.99999552,-10.02215000
-71.49999554,-10.00062000
-70.99999555,-9.99753900
-70.49999556,-10.00861000
-69.99999558,-9.95632300
-69.49999559,-9.84867000
-68.99999561,-9.79638200
-68.49999562,-9.80745600
-67.99999563,-9.80745600
-67.49999565,-9.79638200
-66.99999566,-9.85420700
-66.49999568,-9.98400600
-65.99999569,-9.92864100
-65.49999571,-9.69119100
-64.99999572,-9.63336600
-64.49999573,-9.75209100
-63.99999575,-9.86466500
-63.49999576,-9.97293300
-62.99999578,-9.96739700
-62.49999579,-9.83759800
-61.99999580,-9.83759800
-61.49999582,-9.96739700
-60.99999583,-9.96739700
-60.49999585,-9.83759800
-59.99999586,-9.83206100
-59.49999587,-9.94033000
-58.99999589,-10.05536000
-58.49999590,-10.18516000
-57.99999592,-10.07259000
-57.49999593,-9.71579600
-56.99999595,-9.66104800
-56.49999596,-9.90957200
-55.99999597,-10.02522000
-55.49999599,-10.01415000
-54.99999600,-9.95939900
-54.49999602,-9.86220500
-53.99999603,-9.75209100
-53.49999604,-9.63336600
-52.99999606,-9.68811500
-52.49999607,-9.91510800
-51.99999609,-10.02215000
-51.49999610,-10.00062000
-50.99999612,-9.99507800
-50.49999613,-9.99507800
-49.99999614,-9.99753900
-49.49999616,-10.00861000
-48.99999617,-9.95386200
-48.49999619,-9.83452200
-47.99999620,-9.84005800
-47.49999621,-9.98092900
-46.99999623,-9.92864100
-46.49999624,-9.69119100
-45.99999626,-9.63890200
-45.49999627,-9.77977300
-44.99999628,-9.78223300
-44.49999630,-9.65243500
-43.99999631,-9.64689900
-43.49999633,-9.75516700
-42.99999634,-9.86466500
-42.49999636,-9.97293300
-41.99999637,-9.97047100
-41.49999638,-9.85113100
-40.99999640,-9.79330700
-40.49999641,-9.79330700
-39.99999643,-9.85113100
-39.49999644,-9.97047100
-38.99999645,-9.96739700
-38.49999647,-9.83759800
-37.99999648,-9.83452200
-37.49999650,-9.95386200
-36.99999651,-10.00861000
-36.49999653,-9.99753900
-35.99999654,-9.99507800
-35.49999655,-9.99507800
-34.99999657,-10.00062000
-34.49999658,-10.02215000
-33.99999660,-9.91510800
-33.49999661,-9.68811500
-32.99999662,-9.63336600
-32.49999664,-9.75209100
-31.99999665,-9.86774200
-31.49999667,-9.98646600
-30.99999668,-9.93417800
-30.49999669,-9.71825700
-29.99999671,-9.55585600
-29.49999672,-9.45866100
-28.99999674,-9.46173700
-28.49999675,-9.57000400
-27.99999677,-9.67150600
-27.49999678,-9.74655400
-26.99999679,-9.90649500
-26.49999681,-10.13349000
-25.99999682,-10.13041000
-25.49999684,-9.89234600
-24.99999685,-9.77977300
-24.49999686,-9.79084600
-23.99999688,-9.85420700
-23.49999689,-9.98400600
-22.99999691,-9.92618100
-22.49999692,-9.67704200
-21.99999694,-9.67458200
-21.49999695,-9.91264700
-20.99999696,-10.02215000
-20.49999698,-10.00062000
-19.99999699,-9.99507800
-19.49999701,-9.99507800
-18.99999702,-9.99753900
-18.49999703,-10.00861000
-17.99999705,-9.95632300
-17.49999706,-9.84867000
-16.99999708,-9.79330700
-16.49999709,-9.79330700
-15.99999710,-9.85420700
-15.49999712,-9.98400600
-14.99999713,-9.92618100
-14.49999715,-9.67704200
-13.99999716,-9.68011800
-13.49999718,-9.93971300
-12.99999719,-9.94525100
-12.49999720,-9.70718500
-11.99999722,-9.59215000
-11.49999723,-9.59215000
-10.99999725,-9.70472400
-10.49999726,-9.93171700
-9.99999727,-9.98092900
-9.49999729,-9.84005800
-8.99999730,-9.83206100
-8.49999732,-9.94033000
-7.99999733,-10.04983000
-7.49999735,-10.15810000
-6.99999736,-10.15810000
-6.49999737,-10.04983000
-5.99999739,-9.94279000
-5.49999740,-9.84559500
-4.99999742,-9.79638200
-4.49999743,-9.80745600
-3.99999744,-9.80991600
-3.49999746,-9.80991600
-2.99999747,-9.81237700
-2.49999749,-9.82344900
-1.99999750,-9.76870100
-1.49999752,-9.64936000
-0.99999753,-9.64936000
-0.49999754,-9.76870100
0.00000244,-9.82098900
0.50000243,-9.79884200
1.00000241,-9.84867000
1.50000240,-9.95632300
2.00000239,-10.01169000
2.50000237,-10.01169000
3.00000236,-9.95632300
3.50000234,-9.84867000
4.00000233,-9.79330700
4.50000232,-9.79330700
5.00000230,-9.85420700
5.50000229,-9.98400600
6.00000227,-9.92864100
6.50000226,-9.69119100
7.00000224,-9.63336600
7.50000223,-9.75209100
8.00000222,-9.86220500
8.50000220,-9.95939900
9.00000219,-10.00861000
9.50000217,-9.99753900
10.00000216,-9.99753900
10.50000215,-10.00861000
11.00000213,-9.95386200
11.50000212,-9.83452200
12.00000210,-9.83452200
12.50000209,-9.95386200
13.00000207,-10.01169000
13.50000206,-10.01169000
14.00000205,-9.95632300
14.50000203,-9.84867000
15.00000202,-9.79084600
15.50000200,-9.77977300
16.00000199,-9.88988600
16.50000198,-10.11688000
17.00000196,-10.16917000
17.50000195,-10.03937000
18.00000193,-9.98400600
18.50000192,-10.00615000
19.00000191,-9.95939900
19.50000189,-9.86220500
20.00000188,-9.75516700
20.50000186,-9.64689900
21.00000185,-9.65489600
21.50000183,-9.79576800
22.00000182,-9.74101800
22.50000181,-9.49187900
23.00000179,-9.48634300
23.50000178,-9.71333600
24.00000176,-9.87573700
24.50000175,-9.96186000
25.00000174,-10.01169000
25.50000172,-10.01169000
26.00000171,-9.95632300
26.50000169,-9.84867000
27.00000168,-9.79330700
27.50000166,-9.79330700
28.00000165,-9.84867000
28.50000164,-9.95632300
29.00000162,-10.01415000
29.50000161,-10.02522000
30.00000159,-9.91264700
30.50000158,-9.67458200
31.00000157,-9.67458200
31.50000155,-9.91264700
32.00000154,-10.02215000
32.50000152,-10.00062000
33.00000151,-9.99507800
33.50000150,-9.99507800
34.00000148,-9.99753900
34.50000147,-10.00861000
35.00000145,-9.95386200
35.50000144,-9.83452200
36.00000142,-9.83759800
36.50000141,-9.96739700
37.00000140,-9.97293300
37.50000138,-9.86466500
38.00000137,-9.75762700
38.50000135,-9.66043300
39.00000134,-9.61122000
39.50000133,-9.62229300
40.00000131,-9.61921700
40.50000130,-9.59768700
41.00000128,-9.70164800
41.50000127,-9.91818300
42.00000125,-10.02522000
42.50000124,-10.01415000
43.00000123,-9.95386200
43.50000121,-9.83452200
44.00000120,-9.83452200
44.50000118,-9.95386200
45.00000117,-10.01415000
45.50000116,-10.02522000
46.00000114,-9.91510800
46.50000113,-9.68811500
47.00000111,-9.63336600
47.50000110,-9.75209100
48.00000108,-9.86774200
48.50000107,-9.98646600
49.00000106,-9.92864100
49.50000104,-9.69119100
50.00000103,-9.63336600
50.50000101,-9.75209100
51.00000100,-9.86466500
51.50000099,-9.97293300
52.00000097,-9.96739700
52.50000096,-9.83759800
53.00000094,-9.84005800
53.50000093,-9.98092900
54.00000092,-9.93417800
54.50000090,-9.71825700
55.00000089,-9.55339500
55.50000087,-9.44512700
56.00000086,-9.50049200
56.50000084,-9.71641300
57.00000083,-9.88127400
57.50000082,-9.98954200
58.00000080,-9.92618100
58.50000079,-9.67704200
59.00000077,-9.67458200
59.50000076,-9.91264700
60.00000075,-10.02215000
60.50000073,-10.00062000
61.00000072,-10.00062000
61.50000070,-10.02215000
62.00000069,-9.91510800
62.50000067,-9.68811500
63.00000066,-9.63336600
63.50000065,-9.75209100
64.00000063,-9.86774200
64.50000062,-9.98646600
65.00000060,-9.93171700
65.50000059,-9.70472400
66.00000058,-9.59461100
66.50000056,-9.60568300
67.00000055,-9.66596900
67.50000053,-9.78531000
68.00000052,-9.78223300
68.50000051,-9.65243500
69.00000049,-9.64936000
69.50000048,-9.76870100
70.00000046,-9.82344900
70.50000045,-9.81237700
71.00000043,-9.80745600
71.50000042,-9.79638200
72.00000041,-9.84313500
72.50000039,-9.92925600
73.00000038,-10.09166000
73.50000036,-10.31865000
74.00000035,-10.31557000
74.50000034,-10.07751000
75.00000032,-9.96801100
75.50000031,-9.98954200
76.00000029,-9.99507800
76.50000028,-9.99507800
77.00000026,-10.00062000
77.50000025,-10.02215000
78.00000024,-9.91510800
78.50000022,-9.68811500
79.00000021,-9.63336600
79.50000019,-9.75209100
80.00000018,-9.86220500
80.50000017,-9.95939900
81.00000015,-10.01169000
81.50000014,-10.01169000
82.00000012,-9.95632300
82.50000011,-9.84867000
83.00000010,-9.79084600
83.50000008,-9.77977300
84.00000007,-9.88681100
84.50000005,-10.10335000
85.00000004,-10.21284000
85.50000002,-10.21284000
86.00000001,-10.10027000
86.50000000,-9.87327700
86.99999998,-9.82098900
87.49999997,-9.95078800
87.99999995,-10.01169000
88.49999994,-10.01169000
88.99999993,-9.95939900
89.49999991,-9.86220500
89.99999990,-9.75516700
90.49999988,-9.64689900
90.99999987,-9.64382400
91.49999985,-9.74101800
91.99999984,-9.90096000
92.49999983,-10.10581000
92.99999981,-10.21592000
93.49999980,-10.22699000
93.99999978,-10.06213000
94.49999977,-9.72687000
94.99999976,-9.61983200
95.49999974,-9.74963100
95.99999973,-9.86466500
96.49999971,-9.97293300
96.99999970,-9.97047100
97.49999969,-9.85113100
97.99999967,-9.79884200
98.49999966,-9.82098900
98.99999964,-9.76562400
99.49999963,-9.63582600
99.99999961,-9.68811500
100.49999960,-9.91510800
100.99999959,-10.02768000
101.49999957,-10.02768000
101.99999956,-9.91510800
102.49999954,-9.68811500
102.99999953,-9.63336600
103.49999952,-9.75209100
103.99999950,-9.86220500
104.49999949,-9.95939900
104.99999947,-10.01169000
105.49999946,-10.01169000
105.99999944,-9.95632300
106.49999943,-9.84867000
106.99999942,-9.79330700
107.49999940,-9.79330700
107.99999939,-9.84867000
108.49999937,-9.95632300
108.99999936,-10.01169000
109.49999935,-10.01169000
109.99999933,-9.95632300
110.49999932,-9.84867000
110.99999930,-9.79330700
111.49999929,-9.79330700
111.99999927,-9.84867000
112.49999926,-9.95632300
112.99999925,-10.01169000
113.49999923,-10.01169000
113.99999922,-9.95632300
114.49999920,-9.84867000
114.99999919,-9.79330700
115.49999918,-9.79330700
115.99999916,-9.84867000
116.49999915,-9.95632300
116.99999913,-10.01169000
117.49999912,-10.01169000
117.99999911,-9.95632300
118.49999909,-9.84867000
118.99999908,-9.79330700
119.49999906,-9.79330700
119.99999905,-9.84867000
120.49999903,-9.95632300
120.99999902,-10.00861000
121.49999901,-9.99753900
121.99999899,-9.99507800
122.49999898,-9.99507800
122.99999896,-9.99507800
123.49999895,-9.99507800
123.99999894,-9.99753900
124.49999892,-10.00861000
124.99999891,-9.96186000
125.49999889,-9.87573700
125.99999888,-9.71333600
126.49999886,-9.48634300
126.99999885,-9.48941900
127.49999884,-9.72748500
127.99999882,-9.84005800
128.49999881,-9.82898600
128.99999879,-9.76870100
129.49999878,-9.64936000
129.99999877,-9.64936000
130.49999875,-9.76870100
130.99999874,-9.82652600
131.49999872,-9.82652600
131.99999871,-9.76870100
132.49999870,-9.64936000
132.99999868,-9.65243500
133.49999867,-9.78223300
133.99999865,-9.78531000
134.49999864,-9.66596900
134.99999862,-9.60568300
135.49999861,-9.59461100
135.99999860,-9.70472400
136.49999858,-9.93171700
136.99999857,-9.98092900
137.49999855,-9.84005800
137.99999854,-9.83759800
138.49999853,-9.96739700
138.99999851,-9.96739700
139.49999850,-9.83759800
139.99999848,-9.83759800
140.49999847,-9.96739700
140.99999845,-9.97600800
141.49999844,-9.87881400
141.99999843,-9.71641300
142.49999841,-9.50049200
142.99999840,-9.44512700
143.49999838,-9.55339500
143.99999837,-9.71579600
144.49999836,-9.92064400
144.99999834,-10.02215000
145.49999833,-10.00062000
145.99999831,-10.00062000
146.49999830,-10.02215000
146.99999829,-9.91818300
147.49999827,-9.70164800
147.99999826,-9.59215000
148.49999824,-9.59215000
148.99999823,-9.70718500
149.49999821,-9.94525100
149.99999820,-9.93971300
150.49999819,-9.68011800
150.99999817,-9.67458200
151.49999816,-9.91264700
151.99999814,-10.02522000
152.49999813,-10.01415000
152.99999812,-9.95939900
153.49999810,-9.86220500
153.99999809,-9.75209100
154.49999807,-9.63336600
154.99999806,-9.68811500
155.49999804,-9.91510800
155.99999803,-10.02522000
156.49999802,-10.01415000
156.99999800,-9.95939900
157.49999799,-9.86220500
157.99999797,-9.75516700
158.49999796,-9.64689900
158.99999795,-9.64382400
159.49999793,-9.74101800
159.99999792,-9.90342000
160.49999790,-10.11934000
160.99999789,-10.16917000
161.49999787,-10.03937000
161.99999786,-9.98154500
162.49999785,-9.99261800
162.99999783,-9.99753900
163.49999782,-10.00861000
163.99999780,-9.94832700
164.49999779,-9.80745600
164.99999778,-9.92003000
165.49999776,-10.28789000
165.99999775,-10.29650000
166.49999773,-9.96124500
166.99999772,-9.68934500
167.49999771,-9.49495500
167.99999769,-9.45066500
168.49999768,-9.58046200
168.99999766,-9.63582600
169.49999765,-9.61368100
169.99999763,-9.66043300
170.49999762,-9.75762700
170.99999761,-9.86220500
171.49999759,-9.95939900
171.99999758,-10.00861000
172.49999756,-9.99753900
172.99999755,-9.99753900
173.49999754,-10.00861000
173.99999752,-9.95632300
174.49999751,-9.84867000
174.99999749,-9.79084600
175.49999748,-9.77977300
175.99999746,-9.88988600
176.49999745,-10.11688000
176.99999744,-10.17163000
177.49999742,-10.05290000
177.99999741,-9.94279000
178.49999739,-9.84559500
178.99999738,-9.79330700
179.49999737,-9.79330700
179.99999735,-9.84867000
180.49999734,-9.95632300
180.99999732,-10.01415000
181.49999731,-10.02522000
181.99999730,-9.91510800
182.49999728,-9.68811500
182.99999727,-9.63029000
183.49999725,-9.73855800
183.99999724,-9.90649500
184.49999722,-10.13349000
184.99999721,-10.13349000
185.49999720,-9.90649500
185.99999718,-9.74101800
186.49999717,-9.64382400
186.99999715,-9.65243500
187.49999714,-9.78223300
187.99999713,-9.77977300
188.49999711,-9.63890200
188.99999710,-9.69365100
189.49999708,-9.94279000
189.99999707,-9.94279000
190.49999705,-9.69365100
190.99999704,-9.63336600
191.49999703,-9.75209100
191.99999701,-9.86774200
192.49999700,-9.98646600
192.99999698,-9.93171700
193.49999697,-9.70472400
193.99999696,-9.59461100
194.49999694,-9.60568300
194.99999693,-9.66043300
195.49999691,-9.75762700
195.99999690,-9.86466500
196.49999689,-9.97293300
196.99999687,-9.97293300
197.49999686,-9.86466500
197.99999684,-9.75762700
198.49999683,-9.66043300
198.99999681,-9.60568300
199.49999680,-9.59461100
199.99999679,-9.70472400
200.49999677,-9.93171700
200.99999676,-9.98646600
201.49999674,-9.86774200
201.99999673,-9.75516700
202.49999672,-9.64689900
202.99999670,-9.64689900
203.49999669,-9.75516700
203.99999667,-9.86466500
204.49999666,-9.97293300
204.99999664,-9.97293300
205.49999663,-9.86466500
205.99999662,-9.75209100
206.49999660,-9.63336600
206.99999659,-9.68811500
207.49999657,-9.91510800
207.99999656,-10.02522000
208.49999655,-10.01415000
208.99999653,-9.95386200
209.49999652,-9.83452200
209.99999650,-9.84005800
210.49999649,-9.98092900
210.99999648,-9.92864100
211.49999646,-9.69119100
211.99999645,-9.63336600
212.49999643,-9.75209100
212.99999642,-9.86466500
213.49999640,-9.97293300
213.99999639,-9.97047100
214.49999638,-9.85113100
214.99999636,-9.79330700
215.49999635,-9.79330700
215.99999633,-9.84867000
216.49999632,-9.95632300
216.99999631,-10.01169000
217.49999629,-10.01169000
217.99999628,-9.95386200
218.49999626,-9.83452200
218.99999625,-9.83452200
219.49999623,-9.95386200
219.99999622,-10.00861000
220.49999621,-9.99753900
220.99999619,-9.99753900
221.49999618,-10.00861000
221.99999616,-9.95386200
222.49999615,-9.83452200
222.99999614,-9.83452200
223.49999612,-9.95386200
223.99999611,-10.00615000
224.49999609,-9.98400600
224.99999608,-10.03937000
225.49999606,-10.16917000
225.99999605,-10.11688000
226.49999604,-9.88988600
226.99999602,-9.78284900
227.49999601,-9.80437900
227.99999599,-9.80745600
228.49999598,-9.79638200
228.99999597,-9.85113100
229.49999595,-9.97047100
229.99999594,-9.97047100
230.49999592,-9.85113100
230.99999591,-9.79330700
231.49999590,-9.79330700
231.99999588,-9.84867000
232.49999587,-9.95632300
232.99999585,-10.01169000
233.49999584,-10.01169000
233.99999582,-9.95632300
234.49999581,-9.84867000
234.99999580,-9.79330700
235.49999578,-9.79330700
235.99999577,-9.84867000
236.49999575,-9.95632300
236.99999574,-10.01169000
237.49999573,-10.01169000
237.99999571,-9.96186000
238.49999570,-9.87573700
238.99999568,-9.71333600
239.49999567,-9.48634300
239.99999565,-9.48941900
240.49999564,-9.72748500
240.99999563,-9.84005800
241.49999561,-9.82898600
241.99999560,-9.76870100
242.49999558,-9.64936000
242.99999557,-9.64936000
243.49999556,-9.76870100
243.99999554,-9.82098900
244.49999553,-9.79884200
244.99999551,-9.85666800
245.49999550,-9.99753900
245.99999549,-9.89296200
246.49999547,-9.55770100
246.99999546,-9.39283900
247.49999544,-9.40391200
247.99999543,-9.51648500
248.49999541,-9.73302200
248.99999540,-9.84005800
249.49999539,-9.82898600
249.99999537,-9.76562400
250.49999536,-9.63582600
250.99999534,-9.68565500
251.49999533,-9.90157400
251.99999532,-10.06398000
252.49999530,-10.16117000
252.99999529,-10.16117000
253.49999527,-10.06398000
253.99999526,-9.90403500
254.49999524,-9.69918700
254.99999523,-9.59215000
255.49999522,-9.59215000
255.99999520,-9.70164800
256.49999519,-9.91818300
256.99999517,-10.02522000
257.49999516,-10.01415000
257.99999515,-9.95939900
258.49999513,-9.86220500
258.99999512,-9.75516700
259.49999510,-9.64689900
259.99999509,-9.64689900
260.49999508,-9.75516700
260.99999506,-9.86220500
261.49999505,-9.95939900
261.99999503,-10.01169000
262.49999502,-10.01169000
262.99999500,-9.95386200
263.49999499,-9.83452200
263.99999498,-9.83452200
264.49999496,-9.95386200
264.99999495,-10.01415000
265.49999493,-10.02522000
265.99999492,-9.91264700
266.49999491,-9.67458200
266.99999489,-9.67150600
267.49999488,-9.89849900
267.99999486,-10.06398000
268.49999485,-10.16117000
268.99999483,-10.15810000
269.49999482,-10.04983000
269.99999481,-9.94279000
270.49999479,-9.84559500
270.99999478,-9.79330700
271.49999476,-9.79330700
271.99999475,-9.85420700
272.49999474,-9.98400600
272.99999472,-9.92864100
273.49999471,-9.69119100
273.99999469,-9.64136300
274.49999468,-9.79330700
274.99999466,-9.73794300
275.49999465,-9.47834600
275.99999464,-9.52509800
276.49999462,-9.86035800
276.99999461,-10.08305000
277.49999459,-10.19070000
277.99999458,-10.07566000
278.49999457,-9.72933000
278.99999455,-9.62229300
279.49999454,-9.76316400
279.99999452,-9.82652600
280.49999451,-9.82652600
280.99999450,-9.77116100
281.49999448,-9.66350800
281.99999447,-9.60568300
282.49999445,-9.59461100
282.99999444,-9.70164800
283.49999442,-9.91818300
283.99999441,-10.02215000
284.49999440,-10.00062000
284.99999438,-9.99753900
285.49999437,-10.00861000
285.99999435,-9.95632300
286.49999434,-9.84867000
286.99999433,-9.79330700
287.49999431,-9.79330700
287.99999430,-9.85113100
288.49999428,-9.97047100
288.99999427,-9.97047100
289.49999425,-9.85113100
289.99999424,-9.79638200
290.49999423,-9.80745600
290.99999421,-9.81237700
291.49999420,-9.82344900
291.99999418,-9.76562400
292.49999417,-9.63582600
292.99999416,-9.69672700
293.49999414,-9.95632300
293.99999413,-9.90096000
294.49999411,-9.53371000
294.99999410,-9.47280900
295.49999409,-9.71087600
295.99999407,-9.87573700
296.49999406,-9.96186000
296.99999404,-10.00861000
297.49999403,-9.99753900
297.99999401,-9.99507800
298.49999400,-9.99507800
298.99999399,-9.98954200
299.49999397,-9.96801100
299.99999396,-10.07751000
300.49999394,-10.31557000
300.99999393,-10.31865000
301.49999392,-10.09166000
301.99999390,-9.92925600
302.49999389,-9.84313500
302.99999387,-9.79884200
303.49999386,-9.82098900
303.99999384,-9.77116100
304.49999383,-9.66350800
304.99999382,-9.60814500
305.49999380,-9.60814500
305.99999379,-9.66350800
306.49999377,-9.77116100
306.99999376,-9.82344900
307.49999375,-9.81237700
307.99999373,-9.80745600
308.49999372,-9.79638200
308.99999370,-9.85113100
309.49999369,-9.97047100
309.99999368,-9.97047100
310.49999366,-9.85113100
310.99999365,-9.79330700
311.49999363,-9.79330700
311.99999362,-9.84867000
312.49999360,-9.95632300
312.99999359,-10.01169000
313.49999358,-10.01169000
313.99999356,-9.95386200
314.49999355,-9.83452200
314.99999353,-9.83206100
315.49999352,-9.94033000
315.99999351,-10.04983000
316.49999349,-10.15810000
316.99999348,-10.15563000
317.49999346,-10.03629000
317.99999345,-9.98400600
318.49999343,-10.00615000
318.99999342,-9.95386200
319.49999341,-9.83452200
319.99999339,-9.83759800
320.49999338,-9.96739700
320.99999336,-9.96739700
321.49999335,-9.83759800
321.99999334,-9.83759800
322.49999332,-9.96739700
322.99999331,-9.96739700
323.49999329,-9.83759800
323.99999328,-9.83206100
324.49999327,-9.94033000
324.99999325,-10.05290000
325.49999324,-10.17163000
325.99999322,-10.11688000
326.49999321,-9.88988600
326.99999319,-9.77977300
327.49999318,-9.79084600
327.99999317,-9.84867000
328.49999315,-9.95632300
328.99999314,-10.00861000
329.49999312,-9.99753900
329.99999311,-9.99753900
330.49999310,-10.00861000
330.99999308,-9.95386200
331.49999307,-9.83452200
331.99999305,-9.83452200
332.49999304,-9.95386200
332.99999302,-10.01169000
333.49999301,-10.01169000
333.99999300,-9.95632300
334.49999298,-9.84867000
334.99999297,-9.79330700
335.49999295,-9.79330700
335.99999294,-9.85113100
336.49999293,-9.97047100
336.99999291,-9.97293300
337.49999290,-9.86466500
337.99999288,-9.75516700
338.49999287,-9.64689900
338.99999285,-9.64936000
339.49999284,-9.76870100
339.99999283,-9.82098900
340.49999281,-9.79884200
340.99999280,-9.85113100
341.49999278,-9.97047100
341.99999277,-9.96739700
342.49999276,-9.83759800
342.99999274,-9.83452200
343.49999273,-9.95386200
343.99999271,-10.01415000
344.49999270,-10.02522000
344.99999269,-9.91264700
345.49999267,-9.67458200
345.99999266,-9.67458200
346.49999264,-9.91264700
346.99999263,-10.02215000
347.49999261,-10.00062000
347.99999260,-9.99753900
348.49999259,-10.00861000
348.99999257,-9.95939900
349.49999256,-9.86220500
349.99999254,-9.75516700
350.49999253,-9.64689900
350.99999252,-9.64936000
351.49999250,-9.76870100
351.99999249,-9.82652600
352.49999247,-9.82652600
352.99999246,-9.77116100
353.49999244,-9.66350800
353.99999243,-9.60814500
354.49999242,-9.60814500
354.99999240,-9.66350800
355.49999239,-9.77116100
355.99999237,-9.82098900
356.49999236,-9.79884200
356.99999235,-9.85420700
357.49999233,-9.98400600
357.99999232,-9.92864100
358.49999230,-9.69119100
358.99999229,-9.63336600
359.49999228,-9.75209100
359.99999226,-9.86466500
360.49999225,-9.97293300
360.99999223,-9.97047100
361.49999222,-9.85113100
361.99999220,-9.79638200
362.49999219,-9.80745600
362.99999218,-9.80437900
363.49999216,-9.78284900
363.99999215,-9.88988600
364.49999213,-10.11688000
364.99999212,-10.17470000
365.49999211,-10.06644000
365.99999209,-9.90157400
366.49999208,-9.68565500
366.99999206,-9.63336600
367.49999205,-9.75209100
367.99999203,-9.86466500
368.49999202,-9.97293300
368.99999201,-9.97293300
369.49999199,-9.86466500
369.99999198,-9.76070300
370.49999196,-9.67396600
370.99999195,-9.56692900
371.49999194,-9.44820400
371.99999192,-9.50049200
372.49999191,-9.71641300
372.99999189,-9.88127400
373.49999188,-9.98954200
373.99999187,-9.93171700
374.49999185,-9.70472400
374.99999184,-9.59461100
375.49999182,-9.60568300
375.99999181,-9.66596900
376.49999179,-9.78531000
376.99999178,-9.77977300
377.49999177,-9.63890200
377.99999175,-9.68811500
378.49999174,-9.91510800
378.99999172,-10.01968000
379.49999171,-9.98708100
379.99999170,-10.03629000
380.49999168,-10.15563000
380.99999167,-10.15256000
381.49999165,-10.02276000
381.99999164,-10.02276000
382.49999162,-10.15256000
382.99999161,-10.16117000
383.49999160,-10.06398000
383.99999158,-9.90157400
384.49999157,-9.68565500
384.99999155,-9.63336600
385.49999154,-9.75209100
385.99999153,-9.86220500
386.49999151,-9.95939900
386.99999150,-10.00861000
387.49999148,-9.99753900
387.99999147,-9.99507800
388.49999145,-9.99507800
388.99999144,-9.99507800
389.49999143,-9.99507800
389.99999141,-9.99753900
390.49999140,-10.00861000
390.99999138,-9.95632300
391.49999137,-9.84867000
391.99999136,-9.79330700
392.49999134,-9.79330700
392.99999133,-9.84867000
393.49999131,-9.95632300
393.99999130,-10.00861000
394.49999129,-9.99753900
394.99999127,-9.99261800
395.49999126,-9.98154500
395.99999124,-10.03629000
396.49999123,-10.15563000
396.99999121,-10.15563000
397.49999120,-10.03629000
397.99999119,-9.98400600
398.49999117,-10.00615000
398.99999116,-9.95386200
399.49999114,-9.83452200
399.99999113,-9.83452200
400.49999112,-9.95386200
400.99999110,-10.00615000
401.49999109,-9.98400600
401.99999107,-10.03937000
402.49999106,-10.16917000
402.99999104,-10.11934000
403.49999103,-9.90342000
403.99999102,-9.73548200
404.49999100,-9.61675600
404.99999099,-9.73240600
405.49999097,-10.08920000
405.99999096,-10.14395000
406.49999095,-9.89542300
406.99999093,-9.78284900
407.49999092,-9.80437900
407.99999090,-9.80745600
408.49999089,-9.79638200
408.99999088,-9.85420700
409.49999086,-9.98400600
409.99999085,-9.92864100
410.49999083,-9.69119100
410.99999082,-9.63336600
411.49999080,-9.75209100
411.99999079,-9.86220500
412.49999078,-9.95939900
412.99999076,-10.01169000
413.49999075,-10.01169000
413.99999073,-9.95632300
414.49999072,-9.84867000
414.99999071,-9.79330700
415.49999069,-9.79330700
415.99999068,-9.84867000
416.49999066,-9.95632300
416.99999065,-10.00861000
417.49999063,-9.99753900
417.99999062,-9.99753900
418.49999061,-10.00861000
418.99999059,-9.95939900
419.49999058,-9.86220500
419.99999056,-9.75209100
420.49999055,-9.63336600
420.99999054,-9.69119100
421.49999052,-9.92864100
421.99999051,-9.98646600
422.49999049,-9.86774200
422.99999048,-9.75209100
423.49999047,-9.63336600
423.99999045,-9.68811500
424.49999044,-9.91510800
424.99999042,-10.02522000
425.49999041,-10.01415000
425.99999039,-9.95386200
426.49999038,-9.83452200
426.99999037,-9.83452200
427.49999035,-9.95386200
427.99999034,-10.00615000
428.49999032,-9.98400600
428.99999031,-10.03629000
429.49999030,-10.15563000
429.99999028,-10.15563000
430.49999027,-10.03629000
430.99999025,-9.98154500
431.49999024,-9.99261800
431.99999022,-10.00062000
432.49999021,-10.02215000
432.99999020,-9.91510800
433.49999018,-9.68811500
433.99999017,-9.63582600
434.49999015,-9.76562400
434.99999014,-9.82344900
435.49999013,-9.81237700
435.99999011,-9.80745600
436.49999010,-9.79638200
436.99999008,-9.85420700
437.49999007,-9.98400600
437.99999006,-9.92864100
438.49999004,-9.69119100
438.99999003,-9.63582600
439.49999001,-9.76562400
439.99999000,-9.82344900
440.49998998,-9.81237700
440.99998997,-9.81237700
441.49998996,-9.82344900
441.99998994,-9.76870100
442.49998993,-9.64936000
442.99998991,-9.64382400
443.49998990,-9.74101800
443.99998989,-9.90649500
444.49998987,-10.13349000
444.99998986,-10.13349000
445.49998984,-9.90649500
445.99998983,-9.74101800
446.49998981,-9.64382400
446.99998980,-9.64382400
447.49998979,-9.74101800
447.99998977,-9.90342000
448.49998976,-10.11934000
448.99998974,-10.16917000
449.49998973,-10.03937000
449.99998972,-9.98400600
450.49998970,-10.00615000
450.99998969,-9.95386200
451.49998967,-9.83452200
451.99998966,-9.83452200
452.49998964,-9.95386200
452.99998963,-10.01415000
453.49998962,-10.02522000
453.99998960,-9.91510800
454.49998959,-9.68811500
454.99998957,-9.63336600
455.49998956,-9.75209100
455.99998955,-9.86220500
456.49998953,-9.95939900
456.99998952,-10.01415000
457.49998950,-10.02522000
457.99998949,-9.91264700
458.49998948,-9.67458200
458.99998946,-9.67458200
459.49998945,-9.91264700
459.99998943,-10.02215000
460.49998942,-10.00062000
460.99998940,-10.00062000
461.49998939,-10.02215000
461.99998938,-9.91510800
462.49998936,-9.68811500
462.99998935,-9.63336600
463.49998933,-9.75209100
463.99998932,-9.86220500
464.49998931,-9.95939900
464.99998929,-10.00861000
465.49998928,-9.99753900
465.99998926,-9.99753900
466.49998925,-10.00861000
466.99998923,-9.95939900
467.49998922,-9.86220500
467.99998921,-9.75209100
468.49998919,-9.63336600
468.99998918,-9.69365100
469.49998916,-9.94279000
469.99998915,-9.94279000
470.49998914,-9.69365100
470.99998912,-9.63029000
471.49998911,-9.73855800
471.99998909,-9.90096000
472.49998908,-10.10581000
472.99998907,-10.21038000
473.49998905,-10.19931000
473.99998904,-10.14149000
474.49998902,-10.03383000
474.99998901,-9.97846900
475.49998899,-9.97846900
475.99998898,-10.03937000
476.49998897,-10.16917000
476.99998895,-10.11934000
477.49998894,-9.90342000
477.99998892,-9.74101800
478.49998891,-9.64382400
478.99998890,-9.64689900
479.49998888,-9.75516700
479.99998887,-9.86774200
480.49998885,-9.98646600
480.99998884,-9.92864100
481.49998882,-9.69119100
481.99998881,-9.63890200
482.49998880,-9.77977300
482.99998878,-9.78223300
483.49998877,-9.65243500
483.99998875,-9.64936000
484.49998874,-9.76870100
484.99998873,-9.82344900
485.49998871,-9.81237700
485.99998870,-9.80991600
486.49998868,-9.80991600
486.99998867,-9.80745600
487.49998866,-9.79638200
487.99998864,-9.84867000
488.49998863,-9.95632300
488.99998861,-10.01415000
489.49998860,-10.02522000
489.99998858,-9.91510800
490.49998857,-9.68811500
490.99998856,-9.63336600
491.49998854,-9.75209100
491.99998853,-9.86220500
492.49998851,-9.95939900
492.99998850,-10.01169000
493.49998849,-10.01169000
493.99998847,-9.95386200
494.49998846,-9.83452200
494.99998844,-9.83206100
495.49998843,-9.94033000
495.99998841,-10.05290000
496.49998840,-10.17163000
496.99998839,-10.11934000
497.49998837,-9.90342000
497.99998836,-9.74655400
498.49998834,-9.67150600
498.99998833,-9.56692900
499.49998832,-9.44820400
499.99998830,-9.50295300
500.49998829,-9.72994500
500.99998827,-9.83698400
501.49998826,-9.81545200
501.99998824,-9.80991600
502.49998823,-9.80991600
502.99998822,-9.80745600
503.49998820,-9.79638200
503.99998819,-9.85113100
504.49998817,-9.97047100
504.99998816,-9.96493600
505.49998815,-9.82406500
505.99998813,-9.87081600
506.49998812,-10.08674000
506.99998810,-10.24606000
507.49998809,-10.33218000
507.99998808,-10.37894000
508.49998806,-10.36786000
508.99998805,-10.37340000
509.49998803,-10.40662000
509.99998802,-10.24975000
510.49998800,-9.92556500
510.99998799,-9.76624000
511.49998798,-9.78777000
511.99998796,-9.85113100
512.49998795,-9.97047100
512.99998793,-9.97293300
513.49998792,-9.86466500
513.99998791,-9.76070300
514.49998789,-9.67396600
514.99998788,-9.57000400
515.49998786,-9.46173700
515.99998785,-9.45866100
516.49998783,-9.55585600
516.99998782,-9.71825700
517.49998781,-9.93417800
517.99998779,-9.98400600
518.49998778,-9.85420700
518.99998776,-9.79638200
519.49998775,-9.80745600
519.99998774,-9.80745600
520.49998772,-9.79638200
520.99998771,-9.85420700
521.49998769,-9.98400600
521.99998768,-9.92864100
522.49998767,-9.69119100
522.99998765,-9.63336600
523.49998764,-9.75209100
523.99998762,-9.85912800
524.49998761,-9.94586600
524.99998759,-10.05536000
525.49998758,-10.18516000
525.99998757,-10.07566000
526.49998755,-9.72933000
526.99998754,-9.62229300
527.49998752,-9.76316400
527.99998751,-9.82652600
528.49998750,-9.82652600
528.99998748,-9.76562400
529.49998747,-9.63582600
529.99998745,-9.69119100
530.49998744,-9.92864100
530.99998742,-9.98092900
531.49998741,-9.84005800
531.99998740,-9.83206100
532.49998738,-9.94033000
532.99998737,-10.05290000
533.49998735,-10.17163000
533.99998734,-10.11688000
534.49998733,-9.88988600
534.99998731,-9.77977300
535.49998730,-9.79084600
535.99998728,-9.84867000
536.49998727,-9.95632300
536.99998726,-10.01169000
537.49998724,-10.01169000
537.99998723,-9.95632300
538.49998721,-9.84867000
538.99998720,-9.79084600
539.49998718,-9.77977300
539.99998717,-9.88988600
540.49998716,-10.11688000
540.99998714,-10.18024000
541.49998713,-10.09350000
541.99998711,-9.81914300
542.49998710,-9.36515700
542.99998709,-9.31286800
543.49998707,-9.66966000
543.99998706,-9.89234600
544.49998704,-9.97846900
544.99998703,-9.97293300
545.49998701,-9.86466500
545.99998700,-9.76070300
546.49998699,-9.67396600
546.99998697,-9.57000400
547.49998696,-9.46173700
547.99998694,-9.45373900
548.49998693,-9.52879000
548.99998692,-9.80376400
549.49998690,-10.26882000
549.99998689,-10.26575000
550.49998687,-9.79023100
550.99998686,-9.56754400
551.49998685,-9.60014700
551.99998683,-9.66043300
552.49998682,-9.75762700
552.99998680,-9.86220500
553.49998679,-9.95939900
553.99998677,-10.00861000
554.49998676,-9.99753900
554.99998675,-9.99261800
555.49998673,-9.98154500
555.99998672,-10.03076000
556.49998670,-10.12795000
556.99998669,-10.24053000
557.49998668,-10.37033000
557.99998666,-10.25221000
558.49998665,-9.87389300
558.99998663,-9.91510800
559.49998662,-10.34695000
559.99998660,-10.73450000
560.49998659,-11.06914000
560.99998658,-10.99532000
561.49998656,-10.58563000
561.99998655,-9.56446800
562.49998653,-8.11761800
562.99998652,-6.77472900
563.49998651,-5.75049200
563.99998649,-5.23437500
564.49998648,-5.41953700
564.99998646,-5.15563500
565.49998645,-4.58353800
565.99998643,-3.91055600
566.49998642,-3.24188000
566.99998641,-2.79158400
567.49998639,-2.66240100
567.99998638,-2.54429100
568.49998636,-2.53444900
568.99998635,-2.14197800
569.49998634,-1.47268700
569.99998632,-0.75049210
570.49998631,-0.09288878
570.99998629,0.36294290
571.49998628,0.52411410
571.99998627,0.50812010
572.49998625,0.28051180
572.99998624,0.13841040
573.49998622,0.12856790
573.99998621,-0.27497540
574.49998619,-0.98732770
574.99998618,-1.52866600
575.49998617,-1.86331200
575.99998615,-1.59387300
576.49998614,-0.74064960
576.99998612,-0.08735236
577.49998611,0.33341540
577.99998610,0.18516240
578.49998608,-0.49458660
578.99998607,-1.45300200
579.49998605,-2.59781000
579.99998604,-3.00442900
580.49998602,-2.59288900
580.99998601,-2.24347900
581.49998600,-1.93036400
581.99998598,-1.88361200
582.49998597,-2.12167800
582.99998595,-2.26993100
583.49998594,-2.29084600
583.99998593,-2.65625000
584.49998591,-3.31569900
584.99998590,-3.52977300
585.49998588,-3.28125000
585.99998587,-3.01734700
586.49998586,-2.76943900
586.99998584,-2.36589600
587.49998583,-1.89099400
587.99998581,-1.45423200
588.49998580,-1.07591000
588.99998578,-1.41916800
589.49998577,-2.39050200
589.99998576,-3.59067400
590.49998574,-4.85359200
590.99998573,-5.67482800
591.49998571,-5.91104800
591.99998570,-5.80401100
592.49998569,-5.36232800
592.99998567,-4.48326700
593.49998566,-3.30647100
593.99998564,-2.35912900
594.49998563,-1.75442900
594.99998561,-1.84547200
595.49998560,-2.58981300
595.99998559,-3.88902500
596.49998557,-5.55056600
596.99998556,-6.86392700
597.49998554,-7.66240100
597.99998553,-7.48954200
598.49998552,-6.33366200
598.99998550,-5.16055600
599.49998549,-4.08157000
599.99998547,-3.56237700
600.49998546,-3.68110200
600.99998545,-4.27165300
601.49998543,-5.28666300
601.99998542,-6.06668300
602.49998540,-6.49852300
602.99998539,-6.74274100
603.49998537,-6.73166800
603.99998536,-6.51205700
604.49998535,-6.09067400
604.99998533,-5.81569900
605.49998532,-5.69697300
605.99998530,-5.88644200
606.49998529,-6.31766700
606.99998528,-7.14751400
607.49998526,-8.24864600
607.99998525,-8.99544800
608.49998523,-9.31963500
608.99998522,-8.90747900
609.49998520,-7.82849400
609.99998519,-6.55388700
610.49998518,-5.21469000
610.99998516,-4.77239100
611.49998515,-5.23622000
611.99998513,-6.54896600
612.49998512,-8.54638300
612.99998511,-10.12857000
613.49998509,-11.11036000
613.99998508,-11.04208000
614.49998506,-9.89726800
614.99998505,-8.58144700
615.49998503,-7.25455200
615.99998502,-6.21616600
616.49998501,-5.62192400
616.99998499,-5.77632900
617.49998498,-6.65046700
617.99998496,-7.90046700
618.49998495,-9.34608700
618.99998494,-10.49459000
619.49998492,-11.18541000
619.99998491,-11.08329000
620.49998489,-10.20915000
620.99998488,-8.88841000
621.49998487,-7.26870000
621.99998485,-6.36749500
622.49998484,-6.28137300
622.99998482,-6.97650100
623.49998481,-8.39074700
623.99998479,-9.65735700
624.49998478,-10.62869000
624.99998477,-10.93073000
625.49998475,-10.49828000
625.99998474,-9.76501000
626.49998472,-8.82628000
626.99998471,-7.83772100
627.49998470,-6.94143700
627.99998468,-6.62278500
628.49998467,-6.91437000
628.99998465,-7.70853800
629.49998464,-8.91732300
629.99998462,-9.80745600
630.49998461,-10.26021000
630.99998460,-10.30143000
631.49998458,-9.90219000
631.99998457,-9.27042300
632.49998455,-8.48240700
632.99998454,-7.90292800
633.49998453,-7.60027000
633.99998451,-7.75405900
634.49998450,-8.33722900
634.99998448,-9.12586100
635.49998447,-10.02153000
635.99998446,-10.53519000
636.49998444,-10.57763000
636.99998443,-10.46260000
637.49998441,-10.18147000
637.99998440,-9.76131900
638.49998438,-9.25442900
638.99998437,-8.98253000
639.49998436,-8.96038300
639.99998434,-9.32578700
640.49998433,-10.02768000
640.99998431,-10.65084000
641.49998430,-11.10359000
641.99998429,-11.41117000
642.49998427,-11.51944000
642.99998426,-11.31890000
643.49998424,-10.85507000
643.99998423,-10.17101000
644.49998421,-9.35100800
644.99998420,-8.99360200
645.49998419,-9.16646100
645.99998417,-9.33132400
646.49998416,-9.48203700
646.99998414,-9.84497900
647.49998413,-10.36356000
647.99998412,-10.62992000
648.49998410,-10.61885000
648.99998409,-10.39924000
649.49998407,-9.97785400
649.99998406,-9.71948700
650.49998405,-9.66596900
650.99998403,-9.56692900
651.49998402,-9.44820400
651.99998400,-9.50295300
652.49998399,-9.72994500
652.99998397,-9.84005800
653.49998396,-9.82898600
653.99998395,-9.77423700
654.49998393,-9.67704200
654.99998392,-9.56692900
655.49998390,-9.44820400
655.99998389,-9.49741600
656.49998388,-9.70287800
656.99998386,-9.90895600
657.49998385,-10.08120000
657.99998383,-10.29589000
658.49998382,-10.53334000
658.99998380,-10.42630000
659.49998379,-9.98339000
659.99998378,-9.71948700
660.49998376,-9.66596900
660.99998375,-9.58353800
661.49998373,-9.53002000
661.99998372,-9.27165300
662.49998371,-8.85088500
662.99998369,-8.63127400
663.49998368,-8.62020100
663.99998366,-8.87856800
664.49998365,-9.36392600
664.99998364,-9.87758400
665.49998362,-10.33095000
665.99998361,-10.74003000
666.49998359,-11.03100000
666.99998358,-11.08022000
667.49998356,-10.87537000
667.99998355,-10.56225000
668.49998354,-10.18455000
668.99998352,-9.82775600
669.49998351,-9.55770100
669.99998349,-9.34055100
670.49998348,-9.18922200
670.99998347,-9.49680100
671.49998345,-10.20977000
671.99998344,-10.83907000
672.49998342,-11.30229000
672.99998341,-11.55758000
673.49998339,-11.55758000
673.99998338,-11.29122000
674.49998337,-10.78433000
674.99998335,-10.36417000
675.49998334,-10.08305000
675.99998332,-9.98154500
676.49998331,-10.07874000
676.99998330,-10.35925000
677.49998328,-10.82431000
677.99998327,-10.82677000
678.49998325,-10.37279000
678.99998324,-10.04306000
679.49998322,-9.84867000
679.99998321,-9.85666800
680.49998320,-10.08366000
680.99998318,-10.24606000
681.49998317,-10.33218000
681.99998315,-10.37894000
682.49998314,-10.36786000
682.99998313,-10.36786000
683.49998311,-10.37894000
683.99998310,-10.33772000
684.49998308,-10.27313000
684.99998307,-10.01784000
685.49998306,-9.61860200
685.99998304,-9.30548700
686.49998303,-9.12216900
686.99998301,-9.07295700
687.49998300,-9.16953700
687.99998298,-9.38914900
688.49998297,-9.72440900
688.99998296,-9.77669800
689.49998294,-9.53863100
689.99998293,-9.37623000
690.49998291,-9.30118100
690.99998290,-9.20214100
691.49998289,-9.10556000
691.99998287,-9.04219900
692.49998286,-8.99913900
692.99998284,-9.26242600
693.49998283,-9.80253400
693.99998281,-10.06336000
694.49998280,-10.00861000
694.99998279,-9.99507800
695.49998277,-9.99507800
695.99998276,-9.99507800
696.49998274,-9.99507800
696.99998273,-9.99261800
697.49998272,-9.98154500
697.99998270,-10.02522000
698.49998269,-10.10089000
698.99998267,-10.30696000
699.49998266,-10.60901000
699.99998265,-10.81816000
700.49998263,-10.90428000
700.99998262,-10.90982000
701.49998260,-10.84523000
701.99998259,-10.52903000
702.49998257,-9.99999900
702.99998256,-9.73609600
703.49998255,-9.76870100
703.99998253,-9.88435100
704.49998252,-10.08920000
704.99998250,-10.24914000
705.49998249,-10.34633000
705.99998248,-10.34080000
706.49998246,-10.22146000
706.99998245,-10.16917000
707.49998243,-10.19131000
707.99998242,-10.14149000
708.49998240,-10.03383000
708.99998239,-9.97846900
709.49998238,-9.97846900
709.99998236,-10.03076000
710.49998235,-10.12795000
710.99998233,-10.23253000
711.49998232,-10.32972000
711.99998231,-10.38755000
712.49998229,-10.40908000
712.99998228,-10.25221000
713.49998226,-9.93909900
713.99998225,-9.72194900
714.49998224,-9.61429600
714.99998222,-9.72687000
715.49998221,-10.06213000
715.99998219,-10.22945000
716.49998218,-10.22945000
716.99998216,-10.07566000
717.49998215,-9.79515200
717.99998214,-9.42667200
718.49998212,-9.01697800
718.99998211,-8.86011200
719.49998209,-8.97945300
719.99998208,-9.19352800
720.49998207,-9.48449700
720.99998205,-9.74286400
721.49998204,-9.92618100
721.99998202,-10.03629000
722.49998201,-10.06890000
722.99998199,-9.80807000
723.49998198,-9.29010800
723.99998197,-8.90501900
724.49998195,-8.66756800
724.99998194,-8.93393200
725.49998192,-9.67888700
725.99998191,-10.20054000
726.49998190,-10.42692000
726.99998188,-10.67421000
727.49998187,-10.87967000
727.99998185,-10.88767000
728.49998184,-10.71543000
728.99998182,-10.29774000
729.49998181,-9.69242100
729.99998180,-9.26673100
730.49998178,-9.06188500
730.99998177,-9.22674700
731.49998175,-9.75578200
731.99998174,-10.18147000
732.49998173,-10.46260000
732.99998171,-10.56410000
733.49998170,-10.46690000
733.99998168,-10.20300000
734.49998167,-9.80376400
734.99998166,-9.48203700
735.49998164,-9.26611700
735.99998163,-9.37561400
736.49998161,-9.80807000
736.99998160,-10.12980000
737.49998158,-10.31311000
737.99998157,-10.36540000
738.49998156,-10.27867000
738.99998154,-10.01538000
739.49998153,-9.60445300
739.99998151,-9.33562900
740.49998150,-9.22736200
740.99998149,-9.38668800
741.49998147,-9.79699800
741.99998146,-10.15994000
742.49998144,-10.41892000
742.99998143,-10.67421000
743.49998141,-10.87967000
743.99998140,-10.88767000
744.49998139,-10.71543000
744.99998137,-10.29466000
745.49998136,-9.67888700
745.99998134,-9.31102400
746.49998133,-9.23535900
746.99998132,-9.34547200
747.49998130,-9.63705600
747.99998129,-10.00246000
748.49998127,-10.39124000
748.99998126,-10.66006000
749.49998125,-10.78986000
749.99998123,-10.52104000
750.49998122,-9.87266300
750.99998120,-9.50725800
751.49998119,-9.47527000
751.99998117,-9.38176600
752.49998116,-9.26304100
752.99998115,-9.30671700
753.49998113,-9.49003400
753.99998112,-9.80622500
754.49998110,-10.21654000
754.99998109,-10.42815000
755.49998108,-10.41769000
755.99998106,-10.24729000
756.49998105,-9.91203200
756.99998103,-9.81606800
757.49998102,-9.98892700
757.99998100,-9.88496500
758.49998099,-9.51710100
758.99998098,-9.50602800
759.49998096,-9.83021600
759.99998095,-10.15994000
760.49998093,-10.48413000
760.99998092,-10.48167000
761.49998091,-10.14641000
761.99998089,-9.88250400
762.49998088,-9.72071700
762.99998086,-9.51771500
763.49998085,-9.31225400
763.99998084,-9.25996500
764.49998082,-9.36823300
764.99998081,-9.53309400
765.49998079,-9.74901500
765.99998078,-9.79576800
766.49998076,-9.65489600
766.99998075,-9.64936000
767.49998074,-9.76870100
767.99998072,-9.82652600
768.49998071,-9.82652600
768.99998069,-9.76316400
769.49998068,-9.62229300
769.99998067,-9.72933000
770.49998065,-10.07566000
770.99998064,-10.18270000
771.49998062,-10.04183000
771.99998061,-9.97293300
772.49998059,-9.95140200
772.99998058,-10.11626000
773.49998057,-10.46198000
773.99998055,-10.50873000
774.49998054,-10.23807000
774.99998052,-10.23007000
775.49998051,-10.46813000
775.99998050,-10.58071000
776.49998048,-10.56964000
776.99998047,-10.51735000
777.49998045,-10.43122000
777.99998044,-10.27436000
778.49998043,-10.06951000
778.99998041,-9.96493600
779.49998040,-9.97600800
779.99998038,-10.03076000
780.49998037,-10.12795000
780.99998035,-10.24053000
781.49998034,-10.37033000
781.99998033,-10.26329000
782.49998031,-9.92802600
782.99998030,-9.76870100
783.49998028,-9.80191900
783.99998027,-9.81237700
784.49998026,-9.82344900
784.99998024,-9.76870100
785.49998023,-9.64936000
785.99998021,-9.65489600
786.49998020,-9.79576800
786.99998018,-9.74655400
787.49998017,-9.51956200
787.99998016,-9.40698800
788.49998014,-9.40698800
788.99998013,-9.52509800
789.49998011,-9.77362200
789.99998010,-9.71887300
790.49998009,-9.36208200
790.99998007,-9.24643100
791.49998006,-9.36515700
791.99998004,-9.53617100
792.49998003,-9.76316400
792.99998001,-9.76316400
793.49998000,-9.53617100
793.99997999,-9.36515700
794.49997997,-9.24643100
794.99997996,-9.35100800
795.49997994,-9.66412400
795.99997993,-9.92802600
796.49997992,-10.11134000
796.99997990,-10.21284000
797.49997989,-10.21284000
797.99997987,-10.10335000
798.49997986,-9.88681100
798.99997985,-9.77731200
799.49997983,-9.77731200
799.99997982,-9.88435100
800.49997980,-10.08920000
800.99997979,-10.25160000
801.49997977,-10.35987000
801.99997976,-10.29650000
802.49997975,-10.04737000
802.99997973,-10.04737000
803.49997972,-10.29650000
803.99997970,-10.34572000
804.49997969,-10.18332000
804.99997968,-10.29035000
805.49997966,-10.65822000
805.99997965,-10.65576000
806.49997963,-10.27682000
806.99997962,-10.21654000
807.49997960,-10.46506000
807.99997959,-10.58071000
808.49997958,-10.56964000
808.99997956,-10.51489000
809.49997955,-10.41769000
809.99997953,-10.30758000
810.49997952,-10.18885000
810.99997951,-10.24668000
811.49997949,-10.48413000
811.99997948,-10.53949000
812.49997946,-10.40969000
812.99997945,-10.35987000
813.49997944,-10.40354000
813.99997942,-10.25221000
814.49997941,-9.93909900
814.99997939,-9.73056000
815.49997938,-9.65489600
815.99997936,-9.61122000
816.49997935,-9.62229300
816.99997934,-9.62721400
817.49997932,-9.63828700
817.99997931,-9.58599900
818.49997929,-9.47834600
818.99997928,-9.42851800
819.49997927,-9.45066500
819.99997925,-9.39530000
820.49997924,-9.26550100
820.99997922,-9.32086600
821.49997921,-9.55831600
821.99997919,-9.61368100
822.49997918,-9.48388300
822.99997917,-9.42298100
823.49997915,-9.42298100
823.99997914,-9.48080600
824.49997912,-9.60014700
824.99997911,-9.60260800
825.49997910,-9.49434000
825.99997908,-9.37623000
826.49997907,-9.23535900
826.99997905,-9.39222300
827.49997904,-9.82467900
827.99997903,-10.08551000
828.49997901,-10.13902000
828.99997900,-10.23499000
829.49997898,-10.34326000
829.99997897,-10.34326000
830.49997895,-10.23499000
830.99997894,-10.12549000
831.49997893,-10.01722000
831.99997891,-10.01722000
832.49997890,-10.12549000
832.99997888,-10.22945000
833.49997887,-10.31619000
833.99997886,-10.42015000
834.49997884,-10.52842000
834.99997883,-10.52596000
835.49997881,-10.40662000
835.99997880,-10.35187000
836.49997878,-10.36294000
836.99997877,-10.36786000
837.49997876,-10.37894000
837.99997874,-10.32111000
838.49997873,-10.19131000
838.99997871,-10.24360000
839.49997870,-10.47059000
839.99997869,-10.58071000
840.49997867,-10.56964000
840.99997866,-10.51735000
841.49997864,-10.43122000
841.99997863,-10.27436000
842.49997861,-10.06951000
842.99997860,-9.96801100
843.49997859,-9.98954200
843.99997857,-9.99261800
844.49997856,-9.98154500
844.99997854,-10.03629000
845.49997853,-10.15563000
845.99997852,-10.16363000
846.49997850,-10.07751000
846.99997849,-9.86835600
847.49997847,-9.56631400
847.99997846,-9.36023500
848.49997845,-9.28457200
848.99997843,-9.23535900
849.49997842,-9.22428600
849.99997840,-9.33439900
850.49997839,-9.56139200
850.99997837,-9.61368100
851.49997836,-9.48388300
851.99997835,-9.42298100
852.49997833,-9.42298100
852.99997832,-9.47834600
853.49997830,-9.58599900
853.99997829,-9.63828700
854.49997828,-9.62721400
854.99997826,-9.61921700
855.49997825,-9.59768700
855.99997823,-9.70164800
856.49997822,-9.91818300
856.99997820,-10.02768000
857.49997819,-10.02768000
857.99997818,-9.91818300
858.49997816,-9.70164800
858.99997815,-9.59461100
859.49997813,-9.60568300
859.99997812,-9.65489600
860.49997811,-9.73056000
860.99997809,-9.94217400
861.49997808,-10.26636000
861.99997806,-10.36786000
862.49997805,-10.22699000
862.99997804,-10.16671000
863.49997802,-10.17778000
863.99997801,-10.19131000
864.49997799,-10.23499000
864.99997798,-10.02030000
865.49997796,-9.56631400
865.99997795,-9.45927600
866.49997794,-9.70841500
866.99997792,-9.87327700
867.49997791,-9.94832700
867.99997789,-10.04983000
868.49997788,-10.15810000
868.99997787,-10.16363000
869.49997785,-10.07751000
869.99997784,-9.86281900
870.49997782,-9.53863100
870.99997781,-9.42913300
871.49997779,-9.53678600
871.99997778,-9.75701200
872.49997777,-10.08120000
872.99997775,-10.18516000
873.49997774,-10.05536000
873.99997772,-9.94279000
874.49997771,-9.84559500
874.99997770,-9.79638200
875.49997768,-9.80745600
875.99997767,-9.80745600
876.49997765,-9.79638200
876.99997764,-9.84559500
877.49997763,-9.94279000
877.99997761,-10.04983000
878.49997760,-10.15810000
878.99997758,-10.15810000
879.49997757,-10.04983000
879.99997755,-9.94832700
880.49997754,-9.87327700
880.99997753,-9.71641300
881.49997751,-9.50049200
881.99997750,-9.44820400
882.49997748,-9.56692900
882.99997747,-9.67704200
883.49997746,-9.77423700
883.99997744,-9.82098900
884.49997743,-9.79884200
884.99997741,-9.85974400
885.49997740,-10.01107000
885.99997738,-9.85174700
886.49997737,-9.39776000
886.99997736,-9.23535900
887.49997734,-9.37623000
887.99997733,-9.48880400
888.49997731,-9.57554100
888.99997730,-9.67704200
889.49997729,-9.77423700
889.99997727,-9.82344900
890.49997726,-9.81237700
890.99997724,-9.80745600
891.49997723,-9.79638200
891.99997722,-9.84867000
892.49997720,-9.95632300
892.99997719,-10.01415000
893.49997717,-10.02522000
893.99997716,-9.91510800
894.49997714,-9.68811500
894.99997713,-9.62783000
895.49997712,-9.72502400
895.99997710,-9.94463500
896.49997709,-10.27990000
896.99997707,-10.33464000
897.49997706,-10.10765000
897.99997705,-9.88804100
898.49997703,-9.68257800
898.99997702,-9.63336600
899.49997700,-9.75209100
899.99997699,-9.85912800
900.49997697,-9.94586600
900.99997696,-10.05290000
901.49997695,-10.17163000
901.99997693,-10.11688000
902.49997692,-9.88988600
