Time,Channel B
(ns),(mV)

-100.99999470,-9.63336600
-100.49999472,-9.75209100
-99.99999473,-9.86774200
-99.49999474,-9.98646600
-98.99999476,-9.93417800
-98.49999477,-9.71825700
-97.99999479,-9.55585600
-97.49999480,-9.45866100
-96.99999481,-9.46173700
-96.49999483,-9.57000400
-95.99999484,-9.67396600
-95.49999486,-9.76070300
-94.99999487,-9.86466500
-94.49999488,-9.97293300
-93.99999490,-9.97047100
-93.49999491,-9.85113100
-92.99999493,-9.79330700
-92.49999494,-9.79330700
-91.99999496,-9.85113100
-91.49999497,-9.97047100
-90.99999498,-9.96739700
-90.49999500,-9.83759800
-89.99999501,-9.83452200
-89.49999503,-9.95386200
-88.99999504,-10.00861000
-88.49999505,-9.99753900
-87.99999507,-9.99507800
-87.49999508,-9.99507800
-86.99999510,-9.99753900
-86.49999511,-10.00861000
-85.99999513,-9.95386200
-85.49999514,-9.83452200
-84.99999515,-9.83206100
-84.49999517,-9.94033000
-83.99999518,-10.04983000
-83.49999520,-10.15810000
-82.99999521,-10.16117000
-82.49999522,-10.06398000
-81.99999524,-9.90157400
-81.49999525,-9.68565500
-80.99999527,-9.63582600
-80.49999528,-9.76562400
-79.99999529,-9.82098900
-79.49999531,-9.79884200
-78.99999532,-9.85420700
-78.49999534,-9.98400600
-77.99999535,-9.92864100
-77.49999537,-9.69119100
-76.99999538,-9.63029000
-76.49999539,-9.73855800
-75.99999541,-9.90342000
-75.49999542,-10.11934000
-74.99999544,-10.17470000
-74.49999545,-10.06644000
-73.99999546,-9.90157400
-73.49999548,-9.68565500
-72.99999549,-9.63336600
-72.49999551,-9.75209100
-71.99999552,-9.86220500
-71.49999554,-9.95939900
-70.99999555,-10.01169000
-70.49999556,-10.01169000
-69.99999558,-9.95632300
-69.49999559,-9.84867000
-68.99999561,-9.79330700
-68.49999562,-9.79330700
-67.99999563,-9.85113100
-67.49999565,-9.97047100
-66.99999566,-9.96739700
-66.49999568,-9.83759800
-65.99999569,-9.83759800
-65.49999571,-9.96739700
-64.99999572,-9.97047100
-64.49999573,-9.85113100
-63.99999575,-9.79330700
-63.49999576,-9.79330700
-62.99999578,-9.85420700
-62.49999579,-9.98400600
-61.99999580,-9.93171700
-61.49999582,-9.70472400
-60.99999583,-9.59215000
-60.49999585,-9.59215000
-59.99999586,-9.70164800
-59.49999587,-9.91818300
-58.99999589,-10.02768000
-58.49999590,-10.02768000
-57.99999592,-9.91510800
-57.49999593,-9.68811500
-56.99999595,-9.63336600
-56.49999596,-9.75209100
-55.99999597,-9.85912800
-55.49999599,-9.94586600
-54.99999600,-10.05290000
-54.49999602,-10.17163000
-53.99999603,-10.11688000
-53.49999604,-9.88988600
-52.99999606,-9.77731200
-52.49999607,-9.77731200
-51.99999609,-9.89542300
-51.49999610,-10.14395000
-50.99999612,-10.08920000
-50.49999613,-9.73240600
-49.99999614,-9.62229300
-49.49999616,-9.76316400
-48.99999617,-9.82652600
-48.49999619,-9.82652600
-47.99999620,-9.76870100
-47.49999621,-9.64936000
-46.99999623,-9.65243500
-46.49999624,-9.78223300
-45.99999626,-9.78223300
-45.49999627,-9.65243500
-44.99999628,-9.64936000
-44.49999630,-9.76870100
-43.99999631,-9.82098900
-43.49999633,-9.79884200
-42.99999634,-9.85113100
-42.49999636,-9.97047100
-41.99999637,-9.97047100
-41.49999638,-9.85113100
-40.99999640,-9.79638200
-40.49999641,-9.80745600
-39.99999643,-9.80745600
-39.49999644,-9.79638200
-38.99999645,-9.84867000
-38.49999647,-9.95632300
-37.99999648,-10.00861000
-37.49999650,-9.99753900
-36.99999651,-9.99507800
-36.49999653,-9.99507800
-35.99999654,-9.99753900
-35.49999655,-10.00861000
-34.99999657,-9.95386200
-34.49999658,-9.83452200
-33.99999660,-9.83759800
-33.49999661,-9.96739700
-32.99999662,-9.96739700
-32.49999664,-9.83759800
-31.99999665,-9.83206100
-31.49999667,-9.94033000
-30.99999668,-10.05844000
-30.49999669,-10.19931000
-29.99999671,-10.03998000
-29.49999672,-9.59645700
-28.99999674,-9.37684400
-28.49999675,-9.38730200
-27.99999677,-9.55524100
-27.49999678,-9.87942800
-26.99999679,-10.03629000
-26.49999681,-10.00308000
-25.99999682,-9.99753900
-25.49999684,-10.00861000
-24.99999685,-9.95632300
-24.49999686,-9.84867000
-23.99999688,-9.79638200
-23.49999689,-9.80745600
-22.99999691,-9.80991600
-22.49999692,-9.80991600
-21.99999694,-9.80991600
-21.49999695,-9.80991600
-20.99999696,-9.80745600
-20.49999698,-9.79638200
-19.99999699,-9.85113100
-19.49999701,-9.97047100
-18.99999702,-9.97047100
-18.49999703,-9.85113100
-17.99999705,-9.79638200
-17.49999706,-9.80745600
-16.99999708,-9.80745600
-16.49999709,-9.79638200
-15.99999710,-9.84559500
-15.49999712,-9.94279000
-14.99999713,-10.05290000
-14.49999715,-10.17163000
-13.99999716,-10.11934000
-13.49999718,-9.90342000
-12.99999719,-9.74101800
-12.49999720,-9.64382400
-11.99999722,-9.65243500
-11.49999723,-9.78223300
-10.99999725,-9.78531000
-10.49999726,-9.66596900
-9.99999727,-9.60568300
-9.49999729,-9.59461100
-8.99999730,-9.70164800
-8.49999732,-9.91818300
-7.99999733,-10.02215000
-7.49999735,-10.00062000
-6.99999736,-10.00062000
-6.49999737,-10.02215000
-5.99999739,-9.91510800
-5.49999740,-9.68811500
-4.99999742,-9.63029000
-4.49999743,-9.73855800
-3.99999744,-9.90649500
-3.49999746,-10.13349000
-2.99999747,-10.12795000
-2.49999749,-9.87881400
-1.99999750,-9.82652600
-1.49999752,-9.97846900
-0.99999753,-9.92864100
-0.49999754,-9.69119100
0.00000244,-9.63029000
0.50000243,-9.73855800
1.00000241,-9.90342000
1.50000240,-10.11934000
2.00000239,-10.17163000
2.50000237,-10.05290000
3.00000236,-9.94033000
3.50000234,-9.83206100
4.00000233,-9.84005800
4.50000232,-9.98092900
5.00000230,-9.93171700
5.50000229,-9.70472400
6.00000227,-9.59768700
6.50000226,-9.61921700
7.00000224,-9.61921700
7.50000223,-9.59768700
8.00000222,-9.70164800
8.50000220,-9.91818300
9.00000219,-10.02522000
9.50000217,-10.01415000
10.00000216,-9.95386200
10.50000215,-9.83452200
11.00000213,-9.83452200
11.50000212,-9.95386200
12.00000210,-10.01415000
12.50000209,-10.02522000
13.00000207,-9.91510800
13.50000206,-9.68811500
14.00000205,-9.63582600
14.50000203,-9.76562400
15.00000202,-9.82344900
15.50000200,-9.81237700
16.00000199,-9.80991600
16.50000198,-9.80991600
17.00000196,-9.81237700
17.50000195,-9.82344900
18.00000193,-9.77116100
18.50000192,-9.66350800
19.00000191,-9.60568300
19.50000189,-9.59461100
20.00000188,-9.70472400
20.50000186,-9.93171700
21.00000185,-9.98400600
21.50000183,-9.85420700
22.00000182,-9.79330700
22.50000181,-9.79330700
23.00000179,-9.84867000
23.50000178,-9.95632300
24.00000176,-10.00861000
24.50000175,-9.99753900
25.00000174,-10.00062000
25.50000172,-10.02215000
26.00000171,-9.91510800
26.50000169,-9.68811500
27.00000168,-9.63336600
27.50000166,-9.75209100
28.00000165,-9.86220500
28.50000164,-9.95939900
29.00000162,-10.01169000
29.50000161,-10.01169000
30.00000159,-9.95939900
30.50000158,-9.86220500
31.00000157,-9.75209100
31.50000155,-9.63336600
32.00000154,-9.68257800
32.50000152,-9.88804100
33.00000151,-10.10765000
33.50000150,-10.33464000
34.00000148,-10.27682000
34.50000147,-9.93110200
35.00000145,-9.76316400
35.50000144,-9.77423700
36.00000142,-9.88988600
36.50000141,-10.11688000
37.00000140,-10.17163000
37.50000138,-10.05290000
38.00000137,-9.94033000
38.50000135,-9.83206100
39.00000134,-9.83206100
39.50000133,-9.94033000
40.00000131,-10.04737000
40.50000130,-10.14456000
41.00000128,-10.20239000
41.50000127,-10.22392000
42.00000125,-10.06459000
42.50000124,-9.74040300
43.00000123,-9.57554100
43.50000121,-9.57554100
44.00000120,-9.74840100
44.50000118,-10.10581000
45.00000117,-10.10827000
45.50000116,-9.76254900
46.00000114,-9.54232200
46.50000113,-9.45620000
47.00000111,-9.46173700
47.50000110,-9.57000400
48.00000108,-9.67396600
48.50000107,-9.76070300
49.00000106,-9.86774200
49.50000104,-9.98646600
50.00000103,-9.93171700
50.50000101,-9.70472400
51.00000100,-9.59215000
51.50000099,-9.59215000
52.00000097,-9.69918700
52.50000096,-9.90403500
53.00000094,-10.06951000
53.50000093,-10.18824000
54.00000092,-10.07566000
54.50000090,-9.72933000
55.00000089,-9.62229300
55.50000087,-9.76316400
56.00000086,-9.82098900
56.50000084,-9.79884200
57.00000083,-9.84559500
57.50000082,-9.94279000
58.00000080,-10.04983000
58.50000079,-10.15810000
59.00000077,-10.15563000
59.50000076,-10.03629000
60.00000075,-9.98154500
60.50000073,-9.99261800
61.00000072,-9.99507800
61.50000070,-9.99507800
62.00000069,-9.99753900
62.50000067,-10.00861000
63.00000066,-9.95939900
63.50000065,-9.86220500
64.00000063,-9.75209100
64.50000062,-9.63336600
65.00000060,-9.69119100
65.50000059,-9.92864100
66.00000058,-9.98092900
66.50000056,-9.84005800
67.00000055,-9.83206100
67.50000053,-9.94033000
68.00000052,-10.05290000
68.50000051,-10.17163000
69.00000049,-10.11688000
69.50000048,-9.88988600
70.00000046,-9.78284900
70.50000045,-9.80437900
71.00000043,-9.80745600
71.50000042,-9.79638200
72.00000041,-9.84559500
72.50000039,-9.94279000
73.00000038,-10.05290000
73.50000036,-10.17163000
74.00000035,-10.11688000
74.50000034,-9.88988600
75.00000032,-9.77731200
75.50000031,-9.77731200
76.00000029,-9.88988600
76.50000028,-10.11688000
77.00000026,-10.16917000
77.50000025,-10.03937000
78.00000024,-9.98154500
78.50000022,-9.99261800
79.00000021,-9.99753900
79.50000019,-10.00861000
80.00000018,-9.94832700
80.50000017,-9.80745600
81.00000015,-9.92003000
81.50000014,-10.28789000
82.00000012,-10.29097000
82.50000011,-9.93356200
83.00000010,-9.76624000
83.50000008,-9.78777000
84.00000007,-9.84867000
84.50000005,-9.95632300
85.00000004,-10.01415000
85.50000002,-10.02522000
86.00000001,-9.91510800
86.50000000,-9.68811500
86.99999998,-9.63336600
87.49999997,-9.75209100
87.99999995,-9.86220500
88.49999994,-9.95939900
88.99999993,-10.01415000
89.49999991,-10.02522000
89.99999990,-9.91510800
90.49999988,-9.68811500
90.99999987,-9.63029000
91.49999985,-9.73855800
91.99999984,-9.90342000
92.49999983,-10.11934000
92.99999981,-10.16917000
93.49999980,-10.03937000
93.99999978,-9.98954200
94.49999977,-10.03322000
94.99999976,-9.87696700
95.49999974,-9.54170700
95.99999973,-9.43159500
96.49999971,-9.55032000
96.99999970,-9.71825700
97.49999969,-9.93417800
97.99999967,-9.98092900
98.49999966,-9.84005800
98.99999964,-9.83452200
99.49999963,-9.95386200
99.99999961,-10.01169000
100.49999960,-10.01169000
100.99999959,-9.95632300
101.49999957,-9.84867000
101.99999956,-9.79638200
102.49999954,-9.80745600
102.99999953,-9.80745600
103.49999952,-9.79638200
103.99999950,-9.84867000
104.49999949,-9.95632300
104.99999947,-10.00861000
105.49999946,-9.99753900
105.99999944,-9.99753900
106.49999943,-10.00861000
106.99999942,-9.95386200
107.49999940,-9.83452200
107.99999939,-9.84005800
108.49999937,-9.98092900
108.99999936,-9.92618100
109.49999935,-9.67704200
109.99999933,-9.67458200
110.49999932,-9.91264700
110.99999930,-10.02215000
111.49999929,-10.00062000
111.99999927,-9.99753900
112.49999926,-10.00861000
112.99999925,-9.95939900
113.49999923,-9.86220500
113.99999922,-9.75516700
114.49999920,-9.64689900
114.99999919,-9.64689900
115.49999918,-9.75516700
115.99999916,-9.86774200
116.49999915,-9.98646600
116.99999913,-9.93417800
117.49999912,-9.71825700
117.99999911,-9.55339500
118.49999909,-9.44512700
118.99999908,-9.50049200
119.49999906,-9.71641300
119.99999905,-9.87881400
120.49999903,-9.97600800
120.99999902,-9.97293300
121.49999901,-9.86466500
121.99999899,-9.75209100
122.49999898,-9.63336600
122.99999896,-9.68811500
123.49999895,-9.91510800
123.99999894,-10.02768000
124.49999892,-10.02768000
124.99999891,-9.91510800
125.49999889,-9.68811500
125.99999888,-9.63582600
126.49999886,-9.76562400
126.99999885,-9.82098900
127.49999884,-9.79884200
127.99999882,-9.84867000
128.49999881,-9.95632300
128.99999879,-10.01415000
129.49999878,-10.02522000
129.99999877,-9.91510800
130.49999875,-9.68811500
130.99999874,-9.63336600
131.49999872,-9.75209100
131.99999871,-9.86220500
132.49999870,-9.95939900
132.99999868,-10.01169000
133.49999867,-10.01169000
133.99999865,-9.95632300
134.49999864,-9.84867000
134.99999862,-9.79330700
135.49999861,-9.79330700
135.99999860,-9.84867000
136.49999858,-9.95632300
136.99999857,-10.01415000
137.49999855,-10.02522000
137.99999854,-9.91510800
138.49999853,-9.68811500
138.99999851,-9.63029000
139.49999850,-9.73855800
139.99999848,-9.90342000
140.49999847,-10.11934000
140.99999845,-10.17163000
141.49999844,-10.05290000
141.99999843,-9.94279000
142.49999841,-9.84559500
142.99999840,-9.79638200
143.49999838,-9.80745600
143.99999837,-9.80745600
144.49999836,-9.79638200
144.99999834,-9.85420700
145.49999833,-9.98400600
145.99999831,-9.93171700
146.49999830,-9.70472400
146.99999829,-9.58907400
147.49999827,-9.57800100
147.99999826,-9.74594000
148.49999824,-10.09166000
148.99999823,-10.14948000
149.49999821,-9.92249000
149.99999820,-9.69980200
150.49999819,-9.48388300
150.99999817,-9.48941900
151.49999816,-9.72748500
151.99999814,-9.83452200
152.49999813,-9.80191900
152.99999812,-9.85113100
153.49999810,-9.97047100
153.99999809,-9.97047100
154.49999807,-9.85113100
154.99999806,-9.79330700
155.49999804,-9.79330700
155.99999803,-9.85420700
156.49999802,-9.98400600
156.99999800,-9.92618100
157.49999799,-9.67704200
157.99999797,-9.67704200
158.49999796,-9.92618100
158.99999795,-9.98646600
159.49999793,-9.86774200
159.99999792,-9.74963100
160.49999790,-9.61983200
160.99999789,-9.73240600
161.49999787,-10.08920000
161.99999786,-10.14395000
162.49999785,-9.89542300
162.99999783,-9.77731200
163.49999782,-9.77731200
163.99999780,-9.88988600
164.49999779,-10.11688000
164.99999778,-10.17163000
165.49999776,-10.05290000
165.99999775,-9.94279000
166.49999773,-9.84559500
166.99999772,-9.79330700
167.49999771,-9.79330700
167.99999769,-9.84867000
168.49999768,-9.95632300
168.99999766,-10.01968000
169.49999765,-10.05229000
169.99999763,-9.83513700
170.49999762,-9.38115100
170.99999761,-9.26857800
171.49999759,-9.49557100
171.99999758,-9.77054600
172.49999756,-10.08366000
172.99999755,-10.18824000
173.49999754,-10.06951000
173.99999752,-9.90711100
174.49999751,-9.71272100
174.99999749,-9.55032000
175.49999748,-9.43159500
175.99999746,-9.54170700
176.49999745,-9.87696700
176.99999744,-10.04429000
177.49999742,-10.04429000
177.99999741,-9.87389300
178.49999739,-9.52817300
178.99999738,-9.47034800
179.49999737,-9.69734200
179.99999735,-9.91695300
180.49999734,-10.12242000
180.99999732,-10.17470000
181.49999731,-10.06644000
181.99999730,-9.89849900
182.49999728,-9.67150600
182.99999727,-9.67458200
183.49999725,-9.91264700
183.99999724,-10.02215000
184.49999722,-10.00062000
184.99999721,-9.99507800
185.49999720,-9.99507800
185.99999718,-9.99753900
186.49999717,-10.00861000
186.99999715,-9.95078800
187.49999714,-9.82098900
187.99999713,-9.87635300
188.49999711,-10.11380000
188.99999710,-10.17470000
189.49999708,-10.06644000
189.99999707,-9.90403500
190.49999705,-9.69918700
190.99999704,-9.58907400
191.49999703,-9.57800100
191.99999701,-9.74286400
192.49999700,-10.07812000
192.99999698,-10.18824000
193.49999697,-10.06951000
193.99999696,-9.90157400
194.49999694,-9.68565500
194.99999693,-9.63336600
195.49999691,-9.75209100
195.99999690,-9.86220500
196.49999689,-9.95939900
196.99999687,-10.00861000
197.49999686,-9.99753900
197.99999684,-9.99753900
198.49999683,-10.00861000
198.99999681,-9.95386200
199.49999680,-9.83452200
199.99999679,-9.83452200
200.49999677,-9.95386200
200.99999676,-10.00861000
201.49999674,-9.99753900
201.99999673,-9.99753900
202.49999672,-10.00861000
202.99999670,-9.95386200
203.49999669,-9.83452200
203.99999667,-9.84005800
204.49999666,-9.98092900
204.99999664,-9.92864100
205.49999663,-9.69119100
205.99999662,-9.63336600
206.49999660,-9.75209100
206.99999659,-9.86466500
207.49999657,-9.97293300
207.99999656,-9.97047100
208.49999655,-9.85113100
208.99999653,-9.79884200
209.49999652,-9.82098900
209.99999650,-9.76870100
210.49999649,-9.64936000
210.99999648,-9.64689900
211.49999646,-9.75516700
211.99999645,-9.86774200
212.49999643,-9.98646600
212.99999642,-9.93171700
213.49999640,-9.70472400
213.99999639,-9.59215000
214.49999638,-9.59215000
214.99999636,-9.70472400
215.49999635,-9.93171700
215.99999633,-9.98092900
216.49999632,-9.84005800
216.99999631,-9.83759800
217.49999629,-9.96739700
217.99999628,-9.97047100
218.49999626,-9.85113100
218.99999625,-9.79330700
219.49999623,-9.79330700
219.99999622,-9.85420700
220.49999621,-9.98400600
220.99999619,-9.93171700
221.49999618,-9.70472400
221.99999616,-9.59461100
222.49999615,-9.60568300
222.99999614,-9.66043300
223.49999612,-9.75762700
223.99999611,-9.85912800
224.49999609,-9.94586600
224.99999608,-10.05536000
225.49999606,-10.18516000
225.99999605,-10.07259000
226.49999604,-9.71579600
226.99999602,-9.65797200
227.49999601,-9.89603700
227.99999599,-10.06951000
228.49999598,-10.18824000
228.99999597,-10.07566000
229.49999595,-9.72933000
229.99999594,-9.62229300
230.49999592,-9.76316400
230.99999591,-9.82098900
231.49999590,-9.79884200
231.99999588,-9.84867000
232.49999587,-9.95632300
232.99999585,-10.00861000
233.49999584,-9.99753900
233.99999582,-9.99507800
234.49999581,-9.99507800
234.99999580,-9.99507800
235.49999578,-9.99507800
235.99999577,-9.99507800
236.49999575,-9.99507800
236.99999574,-10.00062000
237.49999573,-10.02215000
237.99999571,-9.91510800
238.49999570,-9.68811500
238.99999568,-9.63890200
239.49999567,-9.77977300
239.99999565,-9.78223300
240.49999564,-9.65243500
240.99999563,-9.65243500
241.49999561,-9.78223300
241.99999560,-9.78223300
242.49999558,-9.65243500
242.99999557,-9.64382400
243.49999556,-9.74101800
243.99999554,-9.90342000
244.49999553,-10.11934000
244.99999551,-10.17470000
245.49999550,-10.06644000
245.99999549,-9.90157400
246.49999547,-9.68565500
246.99999546,-9.63336600
247.49999544,-9.75209100
247.99999543,-9.86466500
248.49999541,-9.97293300
248.99999540,-9.97047100
249.49999539,-9.85113100
249.99999537,-9.79638200
250.49999536,-9.80745600
250.99999534,-9.80745600
251.49999533,-9.79638200
251.99999532,-9.85420700
252.49999530,-9.98400600
252.99999529,-9.93171700
253.49999527,-9.70472400
253.99999526,-9.59768700
254.49999524,-9.61921700
254.99999523,-9.61921700
255.49999522,-9.59768700
255.99999520,-9.70164800
256.49999519,-9.91818300
256.99999517,-10.02768000
257.49999516,-10.02768000
257.99999515,-9.91510800
258.49999513,-9.68811500
258.99999512,-9.63582600
259.49999510,-9.76562400
259.99999509,-9.82344900
260.49999508,-9.81237700
260.99999506,-9.81237700
261.49999505,-9.82344900
261.99999503,-9.76870100
262.49999502,-9.64936000
262.99999500,-9.64689900
263.49999499,-9.75516700
263.99999498,-9.86220500
264.49999496,-9.95939900
264.99999495,-10.01169000
265.49999493,-10.01169000
265.99999492,-9.95632300
266.49999491,-9.84867000
266.99999489,-9.79084600
267.49999488,-9.77977300
267.99999486,-9.88988600
268.49999485,-10.11688000
268.99999483,-10.16917000
269.49999482,-10.03937000
269.99999481,-9.98400600
270.49999479,-10.00615000
270.99999478,-9.95939900
271.49999476,-9.86220500
271.99999475,-9.75516700
272.49999474,-9.64689900
272.99999472,-9.65243500
273.49999471,-9.78223300
273.99999469,-9.78223300
274.49999468,-9.65243500
274.99999466,-9.64382400
275.49999465,-9.74101800
275.99999464,-9.90649500
276.49999462,-10.13349000
276.99999461,-10.13041000
277.49999459,-9.89234600
277.99999458,-9.78284900
278.49999457,-9.80437900
278.99999455,-9.81237700
279.49999454,-9.82344900
279.99999452,-9.76870100
280.49999451,-9.64936000
280.99999450,-9.64936000
281.49999448,-9.76870100
281.99999447,-9.82344900
282.49999445,-9.81237700
282.99999444,-9.80745600
283.49999442,-9.79638200
283.99999441,-9.84867000
284.49999440,-9.95632300
284.99999438,-10.00861000
285.49999437,-9.99753900
285.99999435,-9.99753900
286.49999434,-10.00861000
286.99999433,-9.95632300
287.49999431,-9.84867000
287.99999430,-9.79084600
288.49999428,-9.77977300
288.99999427,-9.89788300
289.49999425,-10.15748000
289.99999424,-10.04798000
290.49999423,-9.57185000
290.99999421,-9.45927600
291.49999420,-9.70841500
291.99999418,-9.87573700
292.49999417,-9.96186000
292.99999416,-10.01415000
293.49999414,-10.02522000
293.99999413,-9.91264700
294.49999411,-9.67458200
294.99999410,-9.67458200
295.49999409,-9.91264700
295.99999407,-10.02215000
296.49999406,-10.00062000
296.99999404,-10.00062000
297.49999403,-10.02215000
297.99999401,-9.91264700
298.49999400,-9.67458200
298.99999399,-9.67458200
299.49999397,-9.91264700
299.99999396,-10.02522000
300.49999394,-10.01415000
300.99999393,-9.95632300
301.49999392,-9.84867000
301.99999390,-9.79638200
302.49999389,-9.80745600
302.99999387,-9.80745600
303.49999386,-9.79638200
303.99999384,-9.84559500
304.49999383,-9.94279000
304.99999382,-10.05290000
305.49999380,-10.17163000
305.99999379,-10.11934000
306.49999377,-9.90342000
306.99999376,-9.74101800
307.49999375,-9.64382400
307.99999373,-9.64689900
308.49999372,-9.75516700
308.99999370,-9.86466500
309.49999369,-9.97293300
309.99999368,-9.96493600
310.49999366,-9.82406500
310.99999365,-9.87081600
311.49999363,-10.08674000
311.99999362,-10.24914000
312.49999360,-10.34633000
312.99999359,-10.34633000
313.49999358,-10.24914000
313.99999356,-10.08920000
314.49999355,-9.88435100
314.99999353,-9.77977300
315.49999352,-9.79084600
315.99999351,-9.85113100
316.49999349,-9.97047100
316.99999348,-9.96739700
317.49999346,-9.83759800
317.99999345,-9.83452200
318.49999343,-9.95386200
318.99999342,-10.00861000
319.49999341,-9.99753900
319.99999339,-9.99753900
320.49999338,-10.00861000
320.99999336,-9.96186000
321.49999335,-9.87573700
321.99999334,-9.71333600
322.49999332,-9.48634300
322.99999331,-9.48634300
323.49999329,-9.71333600
323.99999328,-9.87573700
324.49999327,-9.96186000
324.99999325,-10.01169000
325.49999324,-10.01169000
325.99999322,-9.95632300
326.49999321,-9.84867000
326.99999319,-9.79330700
327.49999318,-9.79330700
327.99999317,-9.84867000
328.49999315,-9.95632300
328.99999314,-10.01415000
329.49999312,-10.02522000
329.99999311,-9.91510800
330.49999310,-9.68811500
330.99999308,-9.63336600
331.49999307,-9.75209100
331.99999305,-9.86466500
332.49999304,-9.97293300
332.99999302,-9.96739700
333.49999301,-9.83759800
333.99999300,-9.84005800
334.49999298,-9.98092900
334.99999297,-9.92618100
335.49999295,-9.67704200
335.99999294,-9.67458200
336.49999293,-9.91264700
336.99999291,-10.02768000
337.49999290,-10.02768000
337.99999288,-9.92064400
338.49999287,-9.71579600
338.99999285,-9.55032000
339.49999284,-9.43159500
339.99999283,-9.54170700
340.49999281,-9.87696700
340.99999280,-10.03875000
341.49999278,-10.01722000
341.99999277,-9.95386200
342.49999276,-9.83452200
342.99999274,-9.83452200
343.49999273,-9.95386200
343.99999271,-10.00861000
344.49999270,-9.99753900
344.99999269,-10.00062000
345.49999267,-10.02215000
345.99999266,-9.91510800
346.49999264,-9.68811500
346.99999263,-9.63336600
347.49999261,-9.75209100
347.99999260,-9.86220500
348.49999259,-9.95939900
348.99999257,-10.00861000
349.49999256,-9.99753900
349.99999254,-9.99753900
350.49999253,-10.00861000
350.99999252,-9.95632300
351.49999250,-9.84867000
351.99999249,-9.79330700
352.49999247,-9.79330700
352.99999246,-9.85666800
353.49999244,-9.99753900
353.99999243,-9.88742500
354.49999242,-9.53063400
354.99999240,-9.47280900
355.49999239,-9.71087600
355.99999237,-9.87573700
356.49999236,-9.96186000
356.99999235,-10.01415000
357.49999233,-10.02522000
357.99999232,-9.91510800
358.49999230,-9.68811500
358.99999229,-9.63336600
359.49999228,-9.75209100
359.99999226,-9.86220500
360.49999225,-9.95939900
360.99999223,-10.01169000
361.49999222,-10.01169000
361.99999220,-9.95386200
362.49999219,-9.83452200
362.99999218,-9.83206100
363.49999216,-9.94033000
363.99999215,-10.05536000
364.49999213,-10.18516000
364.99999212,-10.07566000
365.49999211,-9.72933000
365.99999209,-9.62229300
366.49999208,-9.76316400
366.99999206,-9.82344900
367.49999205,-9.81237700
367.99999203,-9.80745600
368.49999202,-9.79638200
368.99999201,-9.85113100
369.49999199,-9.97047100
369.99999198,-9.97047100
370.49999196,-9.85113100
370.99999195,-9.79330700
371.49999194,-9.79330700
371.99999192,-9.85113100
372.49999191,-9.97047100
372.99999189,-9.97293300
373.49999188,-9.86466500
373.99999187,-9.75516700
374.49999185,-9.64689900
374.99999184,-9.64689900
375.49999182,-9.75516700
375.99999181,-9.85912800
376.49999179,-9.94586600
376.99999178,-10.05536000
377.49999177,-10.18516000
377.99999175,-10.07566000
378.49999174,-9.72933000
378.99999172,-9.62229300
379.49999171,-9.76316400
379.99999170,-9.82652600
380.49999168,-9.82652600
380.99999167,-9.76562400
381.49999165,-9.63582600
381.99999164,-9.69119100
382.49999162,-9.92864100
382.99999161,-9.98400600
383.49999160,-9.85420700
383.99999158,-9.79330700
384.49999157,-9.79330700
384.99999155,-9.85420700
385.49999154,-9.98400600
385.99999153,-9.92618100
386.49999151,-9.67704200
386.99999150,-9.67458200
387.49999148,-9.91264700
387.99999147,-10.02215000
388.49999145,-10.00062000
388.99999144,-9.99753900
389.49999143,-10.00861000
389.99999141,-9.95386200
390.49999140,-9.83452200
390.99999138,-9.83452200
391.49999137,-9.95386200
391.99999136,-10.00861000
392.49999134,-9.99753900
392.99999133,-10.00062000
393.49999131,-10.02215000
393.99999130,-9.91510800
394.49999129,-9.68811500
394.99999127,-9.63029000
395.49999126,-9.73855800
395.99999124,-9.90895600
396.49999123,-10.14702000
396.99999121,-10.08612000
397.49999120,-9.71887300
397.99999119,-9.66350800
398.49999117,-9.92310400
398.99999116,-9.98646600
399.49999114,-9.86774200
399.99999113,-9.75516700
400.49999112,-9.64689900
400.99999110,-9.65489600
401.49999109,-9.79576800
401.99999107,-9.74347900
402.49999106,-9.50602800
402.99999104,-9.44512700
403.49999103,-9.55339500
403.99999102,-9.71579600
404.49999100,-9.92064400
404.99999099,-10.02768000
405.49999097,-10.02768000
405.99999096,-9.91510800
406.49999095,-9.68811500
406.99999093,-9.63336600
407.49999092,-9.75209100
407.99999090,-9.85912800
408.49999089,-9.94586600
408.99999088,-10.05290000
409.49999086,-10.17163000
409.99999085,-10.11688000
410.49999083,-9.88988600
410.99999082,-9.77731200
411.49999080,-9.77731200
411.99999079,-9.88988600
412.49999078,-10.11688000
412.99999076,-10.17470000
413.49999075,-10.06644000
413.99999073,-9.90711100
414.49999072,-9.71272100
414.99999071,-9.55893100
415.49999069,-9.47280900
415.99999068,-9.41744600
416.49999066,-9.39591400
416.99999065,-9.56077800
417.49999063,-9.90649500
417.99999062,-9.95324800
418.49999061,-9.68257800
418.99999059,-9.67150600
419.49999058,-9.89849900
419.99999056,-10.06398000
420.49999055,-10.16117000
420.99999054,-10.15810000
421.49999052,-10.04983000
421.99999051,-9.94033000
422.49999049,-9.83206100
422.99999048,-9.83759800
423.49999047,-9.96739700
423.99999045,-9.97047100
424.49999044,-9.85113100
424.99999042,-9.79638200
425.49999041,-9.80745600
425.99999039,-9.80745600
426.49999038,-9.79638200
426.99999037,-9.84559500
427.49999035,-9.94279000
427.99999034,-10.05536000
428.49999032,-10.18516000
428.99999031,-10.07566000
429.49999030,-9.72933000
429.99999028,-9.62536900
430.49999027,-9.77669800
430.99999025,-9.78223300
431.49999024,-9.65243500
431.99999022,-9.64689900
432.49999021,-9.75516700
432.99999020,-9.86466500
433.49999018,-9.97293300
433.99999017,-9.97047100
434.49999015,-9.85113100
434.99999014,-9.79330700
435.49999013,-9.79330700
435.99999011,-9.85420700
436.49999010,-9.98400600
436.99999008,-9.93171700
437.49999007,-9.70472400
437.99999006,-9.59215000
438.49999004,-9.59215000
438.99999003,-9.69918700
439.49999001,-9.90403500
439.99999000,-10.06398000
440.49998998,-10.16117000
440.99998997,-10.15563000
441.49998996,-10.03629000
441.99998994,-9.98154500
442.49998993,-9.99261800
442.99998991,-9.99261800
443.49998990,-9.98154500
443.99998989,-10.04183000
444.49998987,-10.18270000
444.99998986,-10.07566000
445.49998984,-9.72933000
445.99998983,-9.62783000
446.49998981,-9.79023100
446.99998980,-9.74101800
447.49998979,-9.49187900
447.99998977,-9.48634300
448.49998976,-9.71333600
448.99998974,-9.88127400
449.49998973,-9.98954200
449.99998972,-9.92864100
450.49998970,-9.69119100
450.99998969,-9.63029000
451.49998967,-9.73855800
451.99998966,-9.90649500
452.49998964,-10.13349000
452.99998963,-10.13349000
453.49998962,-9.90649500
453.99998960,-9.74101800
454.49998959,-9.64382400
454.99998957,-9.64382400
455.49998956,-9.74101800
455.99998955,-9.90342000
456.49998953,-10.11934000
456.99998952,-10.17470000
457.49998950,-10.06644000
457.99998949,-9.90403500
458.49998948,-9.69918700
458.99998946,-9.59215000
459.49998945,-9.59215000
459.99998943,-9.70718500
460.49998942,-9.94525100
460.99998940,-9.94279000
461.49998939,-9.69365100
461.99998938,-9.63582600
462.49998936,-9.76562400
462.99998935,-9.82652600
463.49998933,-9.82652600
463.99998932,-9.76562400
464.49998931,-9.63582600
464.99998929,-9.69119100
465.49998928,-9.92864100
465.99998926,-9.98400600
466.49998925,-9.85420700
466.99998923,-9.79084600
467.49998922,-9.77977300
467.99998921,-9.88988600
468.49998919,-10.11688000
468.99998918,-10.16917000
469.49998916,-10.03937000
469.99998915,-9.98154500
470.49998914,-9.99261800
470.99998912,-9.99507800
471.49998911,-9.99507800
471.99998909,-9.99507800
472.49998908,-9.99507800
472.99998907,-9.99753900
473.49998905,-10.00861000
473.99998904,-9.95632300
474.49998902,-9.84867000
474.99998901,-9.79330700
475.49998899,-9.79330700
475.99998898,-9.84867000
476.49998897,-9.95632300
476.99998895,-10.01169000
477.49998894,-10.01169000
477.99998892,-9.95386200
478.49998891,-9.83452200
478.99998890,-9.83759800
479.49998888,-9.96739700
479.99998887,-9.96739700
480.49998885,-9.83759800
480.99998884,-9.83759800
481.49998882,-9.96739700
481.99998881,-9.97293300
482.49998880,-9.86466500
482.99998878,-9.74963100
483.49998877,-9.61983200
483.99998875,-9.72933000
484.49998874,-10.07566000
484.99998873,-10.18824000
485.49998871,-10.06951000
485.99998870,-9.90157400
486.49998868,-9.68565500
486.99998867,-9.63336600
487.49998866,-9.75209100
487.99998864,-9.86466500
488.49998863,-9.97293300
488.99998861,-9.97047100
489.49998860,-9.85113100
489.99998858,-9.79638200
490.49998857,-9.80745600
490.99998856,-9.80437900
491.49998854,-9.78284900
491.99998853,-9.88988600
492.49998851,-10.11688000
492.99998850,-10.16917000
493.49998849,-10.03937000
493.99998847,-9.98400600
494.49998846,-10.00615000
494.99998844,-9.95632300
495.49998843,-9.84867000
495.99998841,-9.79084600
496.49998840,-9.77977300
496.99998839,-9.89234600
497.49998837,-10.13041000
497.99998836,-10.13041000
498.49998834,-9.89234600
498.99998833,-9.77731200
499.49998832,-9.77731200
499.99998830,-9.88988600
500.49998829,-10.11688000
500.99998827,-10.17163000
501.49998826,-10.05290000
501.99998824,-9.94279000
502.49998823,-9.84559500
502.99998822,-9.79330700
503.49998820,-9.79330700
503.99998819,-9.85113100
504.49998817,-9.97047100
504.99998816,-9.97047100
505.49998815,-9.85113100
505.99998813,-9.79638200
506.49998812,-9.80745600
506.99998810,-9.80437900
507.49998809,-9.78284900
507.99998808,-9.89542300
508.49998806,-10.14395000
508.99998805,-10.08920000
509.49998803,-9.73240600
509.99998802,-9.62229300
510.49998800,-9.76316400
510.99998799,-9.82652600
511.49998798,-9.82652600
511.99998796,-9.76870100
512.49998795,-9.64936000
512.99998793,-9.65489600
513.49998792,-9.79576800
513.99998791,-9.74101800
514.49998789,-9.49187900
514.99998788,-9.48634300
515.49998786,-9.71333600
515.99998785,-9.87573700
516.49998783,-9.96186000
516.99998782,-10.01169000
517.49998781,-10.01169000
517.99998779,-9.95386200
518.49998778,-9.83452200
518.99998776,-9.83452200
519.49998775,-9.95386200
519.99998774,-10.00861000
520.49998772,-9.99753900
520.99998771,-9.99507800
521.49998769,-9.99507800
521.99998768,-9.99507800
522.49998767,-9.99507800
522.99998765,-9.99261800
523.49998764,-9.98154500
523.99998762,-10.03937000
524.49998761,-10.16917000
524.99998759,-10.11688000
525.49998758,-9.88988600
525.99998757,-9.78531000
526.49998755,-9.81791200
526.99998754,-9.76870100
527.49998752,-9.64936000
527.99998751,-9.64689900
528.49998750,-9.75516700
528.99998748,-9.86774200
529.49998747,-9.98646600
529.99998745,-9.92864100
530.49998744,-9.69119100
530.99998742,-9.63582600
531.49998741,-9.76562400
531.99998740,-9.82098900
532.49998738,-9.79884200
532.99998737,-9.85420700
533.49998735,-9.98400600
533.99998734,-9.92864100
534.49998733,-9.69119100
534.99998731,-9.63336600
535.49998730,-9.75209100
535.99998728,-9.86220500
536.49998727,-9.95939900
536.99998726,-10.01415000
537.49998724,-10.02522000
537.99998723,-9.91818300
538.49998721,-9.70164800
538.99998720,-9.59215000
539.49998718,-9.59215000
539.99998717,-9.70718500
540.49998716,-9.94525100
540.99998714,-9.94525100
541.49998713,-9.70718500
541.99998711,-9.59461100
542.49998710,-9.60568300
542.99998709,-9.66043300
543.49998707,-9.75762700
543.99998706,-9.86220500
544.49998704,-9.95939900
544.99998703,-10.00861000
545.49998701,-9.99753900
545.99998700,-9.99753900
546.49998699,-10.00861000
546.99998697,-9.95386200
547.49998696,-9.83452200
547.99998694,-9.83452200
548.49998693,-9.95386200
548.99998692,-10.01169000
549.49998690,-10.01169000
549.99998689,-9.95632300
550.49998687,-9.84867000
550.99998686,-9.79330700
551.49998685,-9.79330700
551.99998683,-9.84867000
552.49998682,-9.95632300
552.99998680,-10.01415000
553.49998679,-10.02522000
553.99998677,-9.92064400
554.49998676,-9.71579600
554.99998675,-9.55339500
555.49998673,-9.44512700
555.99998672,-9.50848900
556.49998670,-9.75762700
556.99998669,-9.75762700
557.49998668,-9.50848900
557.99998666,-9.44820400
558.49998665,-9.56692900
558.99998663,-9.67704200
559.49998662,-9.77423700
559.99998660,-9.82098900
560.49998659,-9.79884200
560.99998658,-9.84867000
561.49998656,-9.95632300
561.99998655,-10.00615000
562.49998653,-9.98400600
562.99998652,-10.03629000
563.49998651,-10.15563000
563.99998649,-10.16117000
564.49998648,-10.06398000
564.99998646,-9.90157400
565.49998645,-9.68565500
565.99998643,-9.63029000
566.49998642,-9.73855800
566.99998641,-9.89542300
567.49998639,-10.07874000
567.99998638,-10.28728000
568.49998636,-10.49274000
568.99998635,-10.54503000
569.49998634,-10.43676000
569.99998632,-10.27744000
570.49998631,-10.08305000
570.99998629,-9.91818300
571.49998628,-9.78838500
571.99998627,-9.94771100
572.49998625,-10.38017000
572.99998624,-10.64653000
573.49998622,-10.72158000
573.99998621,-10.74680000
574.49998619,-10.76956000
574.99998618,-10.06890000
575.49998617,-8.80597900
575.99998615,-7.51230200
576.49998614,-6.39025500
576.99998612,-5.65452800
577.49998611,-5.50504400
577.99998610,-5.18946800
578.49998608,-4.85482300
578.99998607,-4.34670300
579.49998605,-3.76414800
579.99998604,-3.36368100
580.49998602,-3.23449800
580.99998601,-3.05610200
581.49998600,-2.91584600
581.99998598,-2.57566400
582.49998597,-2.13336600
582.99998595,-1.52066900
583.49998594,-0.85199300
583.99998593,-0.33833660
584.49998591,-0.06889763
584.99998590,-0.03075787
585.49998588,-0.25713580
585.99998587,-0.45767720
586.49998586,-0.58686020
586.99998584,-0.98179140
587.49998583,-1.54281500
587.99998581,-2.18873000
588.49998580,-2.86970900
588.99998578,-2.70484700
589.49998577,-1.69968000
589.99998576,-1.04576800
590.49998574,-0.77632870
590.99998573,-0.82554130
591.49998571,-1.18171700
591.99998570,-1.91806100
592.49998569,-2.94352800
592.99998567,-3.52362200
593.49998566,-3.58759800
593.99998564,-3.29662900
594.49998563,-2.62610700
594.99998561,-2.34867100
595.49998560,-2.46739600
595.99998559,-2.79466000
596.49998557,-3.31323800
596.99998556,-3.62081700
597.49998554,-3.66326300
597.99998553,-3.75615100
598.49998552,-3.86441900
598.99998550,-3.88102800
599.49998549,-3.83796700
599.99998547,-3.42888800
600.49998546,-2.72760800
600.99998545,-2.13951800
601.49998543,-1.71875000
601.99998542,-1.79810500
602.49998540,-2.31545300
602.99998539,-3.46087600
603.49998537,-5.06951200
603.99998536,-6.16264700
604.49998535,-6.58280000
604.99998533,-6.56926600
605.49998532,-6.09436500
605.99998530,-5.26759300
606.49998529,-4.22059500
606.99998528,-3.22650100
607.49998526,-2.41695400
607.99998525,-2.29576800
608.49998523,-2.84633400
608.99998522,-4.04404500
609.49998520,-5.71665800
609.99998519,-7.07923200
610.49998518,-7.95337100
610.99998516,-7.99151100
611.49998515,-7.16043300
611.99998513,-6.09990100
612.49998512,-4.92372000
612.99998511,-4.14062500
613.49998509,-3.86011300
613.99998508,-4.13754900
614.49998506,-4.96924200
614.99998505,-5.70004900
615.49998503,-6.22846900
615.99998502,-6.68676100
616.49998501,-6.98941900
616.99998499,-6.93159400
617.49998498,-6.51021100
617.99998496,-6.06791300
618.49998495,-5.61392700
618.99998494,-5.69574300
619.49998492,-6.25738100
619.99998491,-7.19426600
620.49998489,-8.37044700
620.99998488,-9.26304100
621.49998487,-9.75947300
621.99998485,-9.61122000
622.49998484,-8.85580700
622.99998482,-7.64210100
623.49998481,-6.10851400
623.99998479,-5.28973900
624.49998478,-5.22453200
624.99998477,-6.33673700
625.49998475,-8.50762700
625.99998474,-10.08428000
626.49998472,-10.87106000
626.99998471,-11.11282000
627.49998470,-10.73573000
627.99998468,-9.80437900
628.49998467,-8.46641200
628.99998465,-7.10937500
629.49998464,-5.92150500
629.99998462,-5.50135300
630.49998461,-5.90120600
630.99998460,-6.89530000
631.49998458,-8.35260800
631.99998457,-9.71210600
632.49998455,-10.79109000
632.99998454,-11.10728000
633.49998453,-10.62192000
633.99998451,-9.50910400
634.49998450,-7.89001000
634.99998448,-6.77165300
635.49998447,-6.26414800
635.99998446,-6.69845000
636.49998444,-8.04810400
636.99998443,-9.25688900
637.49998441,-10.17347000
637.99998440,-10.78925000
638.49998438,-10.99409000
638.99998437,-10.62623000
639.49998436,-9.72994500
639.99998434,-8.78998500
640.49998433,-7.93799200
640.99998431,-7.36958600
641.49998430,-7.17519700
641.99998429,-7.43356300
642.49998427,-8.10285400
642.99998426,-9.00098300
643.49998424,-10.02645000
643.99998423,-10.44968000
644.49998421,-10.22269000
644.99998420,-9.63459600
645.49998419,-8.73892700
645.99998417,-8.00012300
646.49998416,-7.50307600
646.99998414,-7.50000000
647.49998413,-7.98597400
647.99998412,-8.77214500
648.49998410,-9.75393700
648.99998409,-10.48228000
649.49998407,-10.84892000
649.99998406,-10.83538000
650.49998405,-10.41400000
650.99998403,-9.93540900
651.49998402,-9.45004800
651.99998400,-9.13939400
652.49998399,-9.05327200
652.99998397,-9.15231200
653.49998396,-9.41067900
653.99998395,-9.92187400
654.49998393,-10.59117000
654.99998392,-11.21986000
655.49998390,-11.72736000
655.99998389,-11.78211000
656.49998388,-11.38287000
656.99998386,-10.75357000
657.49998385,-9.97662400
657.99998383,-9.35039300
658.49998382,-8.96223000
658.99998380,-8.97022500
659.49998379,-9.39160900
659.99998378,-9.87204600
660.49998376,-10.36909000
660.99998375,-10.63238000
661.49998373,-10.63238000
661.99998372,-10.35495000
662.49998371,-9.80376400
662.99998369,-9.59768700
663.49998368,-9.77116100
663.99998366,-9.78531000
664.49998365,-9.66596900
664.99998364,-9.60814500
665.49998362,-9.60814500
665.99998361,-9.66350800
666.49998359,-9.77116100
666.99998358,-9.82344900
667.49998356,-9.81237700
667.99998355,-9.81545200
668.49998354,-9.83698400
668.99998352,-9.72994500
669.49998351,-9.50295300
669.99998349,-9.44266700
670.49998348,-9.53986200
670.99998347,-9.75947300
671.49998345,-10.09473000
671.99998344,-10.14395000
672.49998342,-9.89542300
672.99998341,-9.78838500
673.49998339,-9.83144700
673.99998338,-9.74101800
674.49998337,-9.55770100
674.99998335,-9.30241100
675.49998334,-9.02189900
675.99998332,-8.76107200
676.49998331,-8.55561000
676.99998330,-8.54761300
677.49998328,-8.72047200
677.99998327,-9.12401500
678.49998325,-9.67396600
678.99998324,-10.35249000
679.49998322,-11.06484000
679.99998321,-11.32320000
680.49998320,-11.08575000
680.99998318,-10.71174000
681.49998317,-10.23684000
681.99998315,-9.76993100
682.49998314,-9.38115100
682.99998313,-9.21629000
683.49998311,-9.28088000
683.99998310,-9.75639700
684.49998308,-10.58809000
684.99998307,-11.10421000
685.49998306,-11.22232000
685.99998304,-11.36749000
686.49998303,-11.49729000
686.99998301,-11.34904000
687.49998300,-10.96088000
687.99998298,-10.47429000
688.49998297,-9.92310400
688.99998296,-9.93417800
689.49998294,-10.52903000
689.99998293,-10.80955000
690.49998291,-10.77694000
690.99998290,-10.66129000
691.49998289,-10.45645000
691.99998287,-10.30204000
692.49998286,-10.22699000
692.99998284,-10.12549000
693.49998283,-10.01722000
693.99998281,-10.00923000
694.49998280,-10.08428000
694.99998279,-10.34818000
695.49998277,-10.76956000
695.99998276,-10.98364000
696.49998274,-10.97318000
696.99998273,-10.81877000
697.49998272,-10.54934000
697.99998270,-10.13718000
698.49998269,-9.65120500
698.99998267,-9.28580200
699.49998266,-9.09202700
699.99998265,-9.15784900
700.49998263,-9.50356700
700.99998262,-9.67150600
701.49998260,-9.66043300
701.99998259,-9.54785900
702.49998257,-9.33132400
702.99998256,-9.22982200
703.49998255,-9.26242600
703.99998253,-9.21075200
704.49998252,-9.08095500
704.99998250,-9.13570300
705.49998249,-9.37377000
705.99998248,-9.41744600
706.49998246,-9.24397100
706.99998245,-9.38422800
707.49998243,-9.78346300
707.99998242,-10.21469000
708.49998240,-10.64715000
708.99998239,-10.64161000
709.49998238,-10.18762000
709.99998236,-9.85236300
710.49998235,-9.63644100
710.99998233,-9.74347900
711.49998232,-10.16486000
711.99998231,-10.53580000
712.49998229,-10.81631000
712.99998228,-10.97318000
713.49998226,-10.98364000
713.99998225,-10.76956000
714.49998224,-10.34818000
714.99998222,-10.08735000
715.49998221,-10.02276000
715.99998219,-9.98708100
716.49998218,-10.01968000
716.99998216,-9.90711100
717.49998215,-9.64751400
717.99998214,-9.75147500
718.49998212,-10.20546000
718.99998211,-10.42261000
719.49998209,-10.39001000
719.99998208,-10.32419000
720.49998207,-10.20485000
720.99998205,-10.20792000
721.49998204,-10.33772000
721.99998202,-10.33218000
722.49998201,-10.18086000
722.99998199,-10.27928000
723.49998198,-10.60347000
723.99998197,-10.82370000
724.49998195,-10.93135000
724.99998194,-10.82185000
725.49998192,-10.49766000
725.99998191,-10.29158000
726.49998190,-10.23807000
726.99998188,-10.08366000
727.49998187,-9.85666800
727.99998185,-9.85666800
728.49998184,-10.08366000
728.99998182,-10.25467000
729.49998181,-10.37340000
729.99998180,-10.26882000
730.49998178,-9.95570900
730.99998177,-9.69734200
731.49998175,-9.53555600
731.99998174,-9.33009300
732.49998173,-9.11417300
732.99998171,-9.11417300
733.49998170,-9.33009300
733.99998168,-9.54662900
734.49998167,-9.75209100
734.99998166,-9.80991600
735.49998164,-9.72317900
735.99998163,-9.45681600
736.49998161,-9.03604800
736.99998160,-8.82197300
737.49998158,-8.83304600
737.99998157,-8.98068300
738.49998156,-9.22859200
738.99998154,-9.74470900
739.49998153,-10.44660000
739.99998151,-10.91905000
740.49998150,-11.10236000
740.99998149,-10.99532000
741.49998147,-10.60716000
741.99998146,-10.08243000
742.49998144,-9.48818800
742.99998143,-9.12586100
743.49998141,-9.05081200
743.99998140,-9.15538900
744.49998139,-9.42482800
744.99998137,-9.90526500
745.49998136,-10.55364000
745.99998134,-10.70743000
746.49998133,-10.33957000
746.99998132,-10.07074000
747.49998130,-9.91941400
747.99998129,-9.66719900
748.49998127,-9.36454200
748.99998126,-9.20214100
749.49998125,-9.19168300
749.99998123,-9.40883300
750.49998122,-9.84067400
750.99998120,-10.05229000
751.49998119,-10.01968000
751.99998117,-9.95632300
752.49998116,-9.84867000
752.99998115,-9.79884200
753.49998113,-9.82098900
753.99998112,-9.75455200
754.49998110,-9.58107800
754.99998109,-9.83144700
755.49998108,-10.44722000
755.99998106,-10.97748000
756.49998105,-11.36565000
756.99998103,-11.46961000
757.49998102,-11.27522000
757.99998100,-10.85814000
758.49998099,-10.27559000
758.99998098,-9.75332200
759.49998096,-9.36454200
759.99998095,-9.26611700
760.49998093,-9.48203700
760.99998092,-9.80622500
761.49998091,-10.21654000
761.99998089,-10.42261000
762.49998088,-10.39001000
762.99998086,-10.32972000
763.49998085,-10.23253000
763.99998084,-10.14210000
764.49998082,-10.09904000
764.99998081,-9.78346300
765.49998079,-9.23228300
765.99998078,-9.07049700
766.49998076,-9.30794700
766.99998075,-9.57431000
767.49998074,-9.84374900
767.99998072,-10.15440000
768.49998071,-10.45706000
768.99998069,-10.56410000
769.49998068,-10.46690000
769.99998067,-10.20054000
770.49998065,-9.78961600
770.99998064,-9.52325200
771.49998062,-9.42605800
771.99998061,-9.53863100
772.49998059,-9.86281900
772.99998058,-10.07751000
773.49998057,-10.16363000
773.99998055,-10.16363000
774.49998054,-10.07751000
774.99998052,-9.86835600
775.49998051,-9.56631400
775.99998050,-9.36023500
776.49998048,-9.28457200
776.99998047,-9.23535900
777.49998045,-9.22428600
777.99998044,-9.32578700
778.49998043,-9.52017700
778.99998041,-9.72625400
779.49998040,-9.90957200
779.99998038,-10.06951000
780.49998037,-10.18824000
780.99998035,-10.07566000
781.49998034,-9.72933000
781.99998033,-9.61983200
782.49998031,-9.74963100
782.99998030,-9.86220500
783.49998028,-9.95939900
783.99998027,-9.99753900
784.49998026,-9.94340500
784.99998024,-10.15748000
785.49998023,-10.62254000
785.99998021,-10.67175000
786.49998020,-10.29343000
786.99998018,-10.17532000
787.49998017,-10.30512000
787.99998016,-10.41462000
788.49998014,-10.50135000
788.99998013,-10.60531000
789.49998011,-10.71358000
789.99998010,-10.71666000
790.49998009,-10.61946000
790.99998007,-10.45952000
791.49998006,-10.25467000
791.99998004,-10.15010000
792.49998003,-10.16117000
792.99998001,-10.22453000
793.49998000,-10.35433000
793.99997999,-10.30204000
794.49997997,-10.07505000
794.99997996,-9.97047100
795.49997994,-10.00308000
795.99997993,-9.95939900
796.49997992,-9.86220500
796.99997990,-9.75762700
797.49997989,-9.66043300
797.99997987,-9.60814500
798.49997986,-9.60814500
798.99997985,-9.66350800
799.49997983,-9.77116100
799.99997982,-9.82652600
800.49997980,-9.82652600
800.99997979,-9.77116100
801.49997977,-9.66350800
801.99997976,-9.61122000
802.49997975,-9.62229300
802.99997973,-9.62475400
803.49997972,-9.62475400
803.99997970,-9.62475400
804.49997969,-9.62475400
804.99997968,-9.63275100
805.49997966,-9.66596900
805.99997965,-9.50664300
806.49997963,-9.17199800
806.99997962,-9.06188500
807.49997960,-9.18061000
807.99997959,-9.33932100
808.49997958,-9.52325200
808.99997956,-9.72933000
809.49997955,-9.92372000
809.99997953,-10.02768000
810.49997952,-10.02768000
810.99997951,-9.91510800
811.49997949,-9.68811500
811.99997948,-9.63890200
812.49997946,-9.77977300
812.99997945,-9.77669800
813.49997944,-9.62536900
813.99997942,-9.72687000
814.49997941,-10.06213000
814.99997939,-10.21592000
815.49997938,-10.16117000
815.99997936,-10.25714000
816.49997935,-10.47367000
816.99997934,-10.58317000
817.49997932,-10.58317000
817.99997931,-10.47059000
818.49997929,-10.24360000
818.99997928,-10.18332000
819.49997927,-10.28051000
819.99997925,-10.50012000
820.49997924,-10.83538000
820.99997922,-10.89013000
821.49997921,-10.66314000
821.99997919,-10.44353000
822.49997918,-10.23807000
822.99997917,-10.19439000
823.49997915,-10.33526000
823.99997914,-10.33772000
824.49997912,-10.20792000
824.99997911,-10.20792000
825.49997910,-10.33772000
825.99997908,-10.34326000
826.49997907,-10.23499000
826.99997905,-10.12795000
827.49997904,-10.03076000
827.99997903,-9.98708100
828.49997901,-10.01968000
828.99997900,-9.91818300
829.49997898,-9.70164800
829.99997897,-9.59768700
830.49997895,-9.61921700
830.99997894,-9.62475400
831.49997893,-9.62475400
831.99997891,-9.62721400
832.49997890,-9.63828700
832.99997888,-9.58907400
833.49997887,-9.49187900
833.99997886,-9.38730200
834.49997884,-9.29010800
834.99997883,-9.23535900
835.49997881,-9.22428600
835.99997880,-9.32578700
836.49997878,-9.52017700
836.99997877,-9.73486600
837.49997876,-9.95078800
837.99997874,-9.94832700
838.49997873,-9.72133400
838.99997871,-9.55585600
839.49997870,-9.45866100
839.99997869,-9.45866100
840.49997867,-9.55585600
840.99997866,-9.71272100
841.49997864,-9.90711100
841.99997863,-10.06398000
842.49997861,-10.16117000
842.99997860,-10.15010000
843.49997859,-10.00923000
843.99997857,-10.06398000
844.49997856,-10.31311000
844.99997854,-10.31004000
845.49997853,-10.05044000
845.99997852,-10.04491000
846.49997850,-10.28297000
846.99997849,-10.39247000
847.49997847,-10.37094000
847.99997846,-10.36540000
848.49997845,-10.36540000
848.99997843,-10.37094000
849.49997842,-10.39247000
849.99997840,-10.28543000
850.49997839,-10.05844000
850.99997837,-10.00062000
851.49997836,-10.10888000
851.99997835,-10.27374000
852.49997833,-10.48967000
852.99997832,-10.54195000
853.49997830,-10.42323000
853.99997829,-10.31311000
854.49997828,-10.21592000
854.99997826,-10.16671000
855.49997825,-10.17778000
855.99997823,-10.18024000
856.49997822,-10.18024000
856.99997820,-10.18024000
857.49997819,-10.18024000
857.99997818,-10.18024000
858.49997816,-10.18024000
858.99997815,-10.18270000
859.49997813,-10.19377000
859.99997812,-10.15010000
860.49997811,-10.07443000
860.99997809,-9.86835600
861.49997808,-9.56631400
861.99997806,-9.36023500
862.49997805,-9.28457200
862.99997804,-9.23535900
863.49997802,-9.22428600
863.99997801,-9.32886300
864.49997799,-9.53371000
864.99997798,-9.69611200
865.49997796,-9.80437900
865.99997795,-9.74655400
866.49997794,-9.51956200
866.99997792,-9.40944900
867.49997791,-9.42052100
867.99997789,-9.47280900
868.49997788,-9.55893100
868.99997787,-9.71825700
869.49997785,-9.93417800
869.99997784,-9.98400600
870.49997782,-9.85420700
870.99997781,-9.79638200
871.49997779,-9.80745600
871.99997778,-9.80991600
872.49997777,-9.80991600
872.99997775,-9.80745600
873.49997774,-9.79638200
873.99997772,-9.84559500
874.49997771,-9.94279000
874.99997770,-10.04983000
875.49997768,-10.15810000
875.99997767,-10.15563000
876.49997765,-10.03629000
876.99997764,-9.98708100
877.49997763,-10.01968000
877.99997761,-9.92064400
878.49997760,-9.71579600
878.99997758,-9.55032000
879.49997757,-9.43159500
879.99997755,-9.53617100
880.49997754,-9.84928600
880.99997753,-10.11872000
881.49997751,-10.32419000
881.99997750,-10.31865000
882.49997748,-10.09166000
882.99997747,-9.92618100
883.49997746,-9.82898600
883.99997744,-9.83206100
884.49997743,-9.94033000
884.99997741,-10.04429000
885.49997740,-10.13103000
885.99997738,-10.23807000
886.49997737,-10.35679000
886.99997736,-10.30204000
887.49997734,-10.07505000
887.99997733,-9.96801100
888.49997731,-9.98954200
888.99997730,-9.99507800
889.49997729,-9.99507800
889.99997727,-9.99507800
890.49997726,-9.99507800
890.99997724,-9.98708100
891.49997723,-9.95386200
891.99997722,-10.12426000
892.49997720,-10.50320000
892.99997719,-10.39862000
893.49997717,-9.82591000
893.99997716,-9.55893100
894.49997714,-9.62475400
894.99997713,-9.58353800
895.49997712,-9.46419700
895.99997710,-9.45866100
896.49997709,-9.55585600
896.99997707,-9.71825700
897.49997706,-9.93417800
897.99997705,-9.98954200
898.49997703,-9.88127400
898.99997702,-9.71641300
899.49997700,-9.50049200
899.99997699,-9.45066500
900.49997697,-9.58046200
900.99997696,-9.63828700
901.49997695,-9.62721400
901.99997693,-9.62229300
902.49997692,-9.61122000
