Time,Channel B
(ns),(mV)

-100.99999470,-9.91264700
-100.49999472,-9.67458200
-99.99999473,-9.67150600
-99.49999474,-9.89849900
-98.99999476,-10.06951000
-98.49999477,-10.18824000
-97.99999479,-10.08120000
-97.49999480,-9.75701200
-96.99999481,-9.53678600
-96.49999483,-9.42913300
-95.99999484,-9.54416800
-95.49999486,-9.89050200
-94.99999487,-9.99446300
-94.49999488,-9.84313500
-93.99999490,-9.83452200
-93.49999491,-9.95386200
-92.99999493,-10.00615000
-92.49999494,-9.98400600
-91.99999496,-10.03383000
-91.49999497,-10.14149000
-90.99999498,-10.19931000
-90.49999500,-10.21038000
-89.99999501,-10.10027000
-89.49999503,-9.87327700
-88.99999504,-9.82098900
-88.49999505,-9.95078800
-87.99999507,-10.00861000
-87.49999508,-9.99753900
-86.99999510,-10.00062000
-86.49999511,-10.02215000
-85.99999513,-9.91818300
-85.49999514,-9.70164800
-84.99999515,-9.59215000
-84.49999517,-9.59215000
-83.99999518,-9.70472400
-83.49999520,-9.93171700
-82.99999521,-9.98646600
-82.49999522,-9.86774200
-81.99999524,-9.75516700
-81.49999525,-9.64689900
-80.99999527,-9.64689900
-80.49999528,-9.75516700
-79.99999529,-9.86220500
-79.49999531,-9.95939900
-78.99999532,-10.01169000
-78.49999534,-10.01169000
-77.99999535,-9.95632300
-77.49999537,-9.84867000
-76.99999538,-9.79330700
-76.49999539,-9.79330700
-75.99999541,-9.84559500
-75.49999542,-9.94279000
-74.99999544,-10.05290000
-74.49999545,-10.17163000
-73.99999546,-10.11380000
-73.49999548,-9.87635300
-72.99999549,-9.82098900
-72.49999551,-9.95078800
-71.99999552,-10.01169000
-71.49999554,-10.01169000
-70.99999555,-9.95386200
-70.49999556,-9.83452200
-69.99999558,-9.84005800
-69.49999559,-9.98092900
-68.99999561,-9.92864100
-68.49999562,-9.69119100
-67.99999563,-9.63336600
-67.49999565,-9.75209100
-66.99999566,-9.86466500
-66.49999568,-9.97293300
-65.99999569,-9.97047100
-65.49999571,-9.85113100
-64.99999572,-9.79330700
-64.49999573,-9.79330700
-63.99999575,-9.85113100
-63.49999576,-9.97047100
-62.99999578,-9.97047100
-62.49999579,-9.85113100
-61.99999580,-9.79330700
-61.49999582,-9.79330700
-60.99999583,-9.84559500
-60.49999585,-9.94279000
-59.99999586,-10.04737000
-59.49999587,-10.14456000
-58.99999589,-10.19685000
-58.49999590,-10.19685000
-57.99999592,-10.14149000
-57.49999593,-10.03383000
-56.99999595,-9.97846900
-56.49999596,-9.97846900
-55.99999597,-10.03629000
-55.49999599,-10.15563000
-54.99999600,-10.15563000
-54.49999602,-10.03629000
-53.99999603,-9.98708100
-53.49999604,-10.01968000
-52.99999606,-9.91818300
-52.49999607,-9.70164800
-51.99999609,-9.59215000
-51.49999610,-9.59215000
-50.99999612,-9.70718500
-50.49999613,-9.94525100
-49.99999614,-9.94525100
-49.49999616,-9.70718500
-48.99999617,-9.59768700
-48.49999619,-9.61921700
-47.99999620,-9.62229300
-47.49999621,-9.61122000
-46.99999623,-9.66043300
-46.49999624,-9.75762700
-45.99999626,-9.86220500
-45.49999627,-9.95939900
-44.99999628,-10.00861000
-44.49999630,-9.99753900
-43.99999631,-9.99261800
-43.49999633,-9.98154500
-42.99999634,-10.03629000
-42.49999636,-10.15563000
-41.99999637,-10.15810000
-41.49999638,-10.04983000
-40.99999640,-9.94033000
-40.49999641,-9.83206100
-39.99999643,-9.83759800
-39.49999644,-9.96739700
-38.99999645,-9.97047100
-38.49999647,-9.85113100
-37.99999648,-9.79638200
-37.49999650,-9.80745600
-36.99999651,-9.80991600
-36.49999653,-9.80991600
-35.99999654,-9.80991600
-35.49999655,-9.80991600
-34.99999657,-9.81545200
-34.49999658,-9.83698400
-33.99999660,-9.72994500
-33.49999661,-9.50295300
-32.99999662,-9.44512700
-32.49999664,-9.55339500
-31.99999665,-9.71579600
-31.49999667,-9.92064400
-30.99999668,-10.02768000
-30.49999669,-10.02768000
-29.99999671,-9.91510800
-29.49999672,-9.68811500
-28.99999674,-9.63336600
-28.49999675,-9.75209100
-27.99999677,-9.86220500
-27.49999678,-9.95939900
-26.99999679,-10.01169000
-26.49999681,-10.01169000
-25.99999682,-9.95386200
-25.49999684,-9.83452200
-24.99999685,-9.83452200
-24.49999686,-9.95386200
-23.99999688,-10.01415000
-23.49999689,-10.02522000
-22.99999691,-9.91510800
-22.49999692,-9.68811500
-21.99999694,-9.63890200
-21.49999695,-9.77977300
-20.99999696,-9.77977300
-20.49999698,-9.63890200
-19.99999699,-9.68811500
-19.49999701,-9.91510800
-18.99999702,-10.02768000
-18.49999703,-10.02768000
-17.99999705,-9.92064400
-17.49999706,-9.71579600
-16.99999708,-9.55032000
-16.49999709,-9.43159500
-15.99999710,-9.54416800
-15.49999712,-9.89050200
-14.99999713,-9.99446300
-14.49999715,-9.84313500
-13.99999716,-9.83206100
-13.49999718,-9.94033000
-12.99999719,-10.04983000
-12.49999720,-10.15810000
-11.99999722,-10.15563000
-11.49999723,-10.03629000
-10.99999725,-9.98400600
-10.49999726,-10.00615000
-9.99999727,-9.95632300
-9.49999729,-9.84867000
-8.99999730,-9.79638200
-8.49999732,-9.80745600
-7.99999733,-9.81237700
-7.49999735,-9.82344900
-6.99999736,-9.76562400
-6.49999737,-9.63582600
-5.99999739,-9.69119100
-5.49999740,-9.92864100
-4.99999742,-9.98400600
-4.49999743,-9.85420700
-3.99999744,-9.79330700
-3.49999746,-9.79330700
-2.99999747,-9.85113100
-2.49999749,-9.97047100
-1.99999750,-9.97047100
-1.49999752,-9.85113100
-0.99999753,-9.79330700
-0.49999754,-9.79330700
0.00000244,-9.85113100
0.50000243,-9.97047100
1.00000241,-9.97293300
1.50000240,-9.86466500
2.00000239,-9.75516700
2.50000237,-9.64689900
3.00000236,-9.64936000
3.50000234,-9.76870100
4.00000233,-9.82344900
4.50000232,-9.81237700
5.00000230,-9.80991600
5.50000229,-9.80991600
6.00000227,-9.80991600
6.50000226,-9.80991600
7.00000224,-9.80745600
7.50000223,-9.79638200
8.00000222,-9.85113100
8.50000220,-9.97047100
9.00000219,-9.97047100
9.50000217,-9.85113100
10.00000216,-9.79638200
10.50000215,-9.80745600
11.00000213,-9.80745600
11.50000212,-9.79638200
12.00000210,-9.85113100
12.50000209,-9.97047100
13.00000207,-9.97293300
13.50000206,-9.86466500
14.00000205,-9.75516700
14.50000203,-9.64689900
15.00000202,-9.64689900
15.50000200,-9.75516700
16.00000199,-9.86220500
16.50000198,-9.95939900
17.00000196,-10.00861000
17.50000195,-9.99753900
18.00000193,-9.99507800
18.50000192,-9.99507800
19.00000191,-9.99753900
19.50000189,-10.00861000
20.00000188,-9.95386200
20.50000186,-9.83452200
21.00000185,-9.84005800
21.50000183,-9.98092900
22.00000182,-9.92618100
22.50000181,-9.67704200
23.00000179,-9.67458200
23.50000178,-9.91264700
24.00000176,-10.02522000
24.50000175,-10.01415000
25.00000174,-9.95939900
25.50000172,-9.86220500
26.00000171,-9.76070300
26.50000169,-9.67396600
27.00000168,-9.56692900
27.50000166,-9.44820400
28.00000165,-9.50049200
28.50000164,-9.71641300
29.00000162,-9.88127400
29.50000161,-9.98954200
30.00000159,-9.92864100
30.50000158,-9.69119100
31.00000157,-9.63336600
31.50000155,-9.75209100
32.00000154,-9.86220500
32.50000152,-9.95939900
33.00000151,-10.01169000
33.50000150,-10.01169000
34.00000148,-9.95632300
34.50000147,-9.84867000
35.00000145,-9.79330700
35.50000144,-9.79330700
36.00000142,-9.84867000
36.50000141,-9.95632300
37.00000140,-10.01415000
37.50000138,-10.02522000
38.00000137,-9.91818300
38.50000135,-9.70164800
39.00000134,-9.59215000
39.50000133,-9.59215000
40.00000131,-9.70472400
40.50000130,-9.93171700
41.00000128,-9.98646600
41.50000127,-9.86774200
42.00000125,-9.75209100
42.50000124,-9.63336600
43.00000123,-9.68811500
43.50000121,-9.91510800
44.00000120,-10.02215000
44.50000118,-10.00062000
45.00000117,-10.00062000
45.50000116,-10.02215000
46.00000114,-9.91510800
46.50000113,-9.68811500
47.00000111,-9.63336600
47.50000110,-9.75209100
48.00000108,-9.86466500
48.50000107,-9.97293300
49.00000106,-9.97293300
49.50000104,-9.86466500
50.00000103,-9.75209100
50.50000101,-9.63336600
51.00000100,-9.68565500
51.50000099,-9.90157400
52.00000097,-10.06090000
52.50000096,-10.14702000
53.00000094,-10.20239000
53.50000093,-10.22392000
54.00000092,-10.06213000
54.50000090,-9.72687000
55.00000089,-9.61675600
55.50000087,-9.73548200
56.00000086,-9.90342000
56.50000084,-10.11934000
57.00000083,-10.16917000
57.50000082,-10.03937000
58.00000080,-9.98154500
58.50000079,-9.99261800
59.00000077,-9.99507800
59.50000076,-9.99507800
60.00000075,-9.99261800
60.50000073,-9.98154500
61.00000072,-10.03937000
61.50000070,-10.16917000
62.00000069,-10.11934000
62.50000067,-9.90342000
63.00000066,-9.73855800
63.50000065,-9.63029000
64.00000063,-9.68811500
64.50000062,-9.91510800
65.00000060,-10.02215000
65.50000059,-10.00062000
66.00000058,-9.99753900
66.50000056,-10.00861000
67.00000055,-9.95386200
67.50000053,-9.83452200
68.00000052,-9.83452200
68.50000051,-9.95386200
69.00000049,-10.01415000
69.50000048,-10.02522000
70.00000046,-9.91510800
70.50000045,-9.68811500
71.00000043,-9.63029000
71.50000042,-9.73855800
72.00000041,-9.90649500
72.50000039,-10.13349000
73.00000038,-10.12795000
73.50000036,-9.87881400
74.00000035,-9.82406500
74.50000034,-9.96493600
75.00000032,-9.96739700
75.50000031,-9.83759800
76.00000029,-9.83206100
76.50000028,-9.94033000
77.00000026,-10.05536000
77.50000025,-10.18516000
78.00000024,-10.07566000
78.50000022,-9.72933000
79.00000021,-9.61983200
79.50000019,-9.74963100
80.00000018,-9.86466500
80.50000017,-9.97293300
81.00000015,-9.97047100
81.50000014,-9.85113100
82.00000012,-9.79330700
82.50000011,-9.79330700
83.00000010,-9.84867000
83.50000008,-9.95632300
84.00000007,-10.00861000
84.50000005,-9.99753900
85.00000004,-9.99507800
85.50000002,-9.99507800
86.00000001,-9.99753900
86.50000000,-10.00861000
86.99999998,-9.95386200
87.49999997,-9.83452200
87.99999995,-9.84005800
88.49999994,-9.98092900
88.99999993,-9.93171700
89.49999991,-9.70472400
89.99999990,-9.59461100
90.49999988,-9.60568300
90.99999987,-9.66043300
91.49999985,-9.75762700
91.99999984,-9.86220500
92.49999983,-9.95939900
92.99999981,-10.01415000
93.49999980,-10.02522000
93.99999978,-9.91818300
94.49999977,-9.70164800
94.99999976,-9.59215000
95.49999974,-9.59215000
95.99999973,-9.70718500
96.49999971,-9.94525100
96.99999970,-9.94525100
97.49999969,-9.70718500
97.99999967,-9.59215000
98.49999966,-9.59215000
98.99999964,-9.69918700
99.49999963,-9.90403500
99.99999961,-10.06398000
100.49999960,-10.16117000
100.99999959,-10.16117000
101.49999957,-10.06398000
101.99999956,-9.90157400
102.49999954,-9.68565500
102.99999953,-9.63336600
103.49999952,-9.75209100
103.99999950,-9.86220500
104.49999949,-9.95939900
104.99999947,-10.00861000
105.49999946,-9.99753900
105.99999944,-9.99753900
106.49999943,-10.00861000
106.99999942,-9.95386200
107.49999940,-9.83452200
107.99999939,-9.83452200
108.49999937,-9.95386200
108.99999936,-10.01169000
109.49999935,-10.01169000
109.99999933,-9.95632300
110.49999932,-9.84867000
110.99999930,-9.79330700
111.49999929,-9.79330700
111.99999927,-9.84867000
112.49999926,-9.95632300
112.99999925,-10.00861000
113.49999923,-9.99753900
113.99999922,-9.99507800
114.49999920,-9.99507800
114.99999919,-9.99261800
115.49999918,-9.98154500
115.99999916,-10.03629000
116.49999915,-10.15563000
116.99999913,-10.15563000
117.49999912,-10.03629000
117.99999911,-9.98154500
118.49999909,-9.99261800
118.99999908,-9.99261800
119.49999906,-9.98154500
119.99999905,-10.03937000
120.49999903,-10.16917000
120.99999902,-10.11688000
121.49999901,-9.88988600
121.99999899,-9.78531000
122.49999898,-9.81791200
122.99999896,-9.77116100
123.49999895,-9.66350800
123.99999894,-9.60568300
124.49999892,-9.59461100
124.99999891,-9.70718500
125.49999889,-9.94525100
125.99999888,-9.94525100
126.49999886,-9.70718500
126.99999885,-9.59461100
127.49999884,-9.60568300
127.99999882,-9.66043300
128.49999881,-9.75762700
128.99999879,-9.86220500
129.49999878,-9.95939900
129.99999877,-10.00861000
130.49999875,-9.99753900
130.99999874,-9.99507800
131.49999872,-9.99507800
131.99999871,-9.99507800
132.49999870,-9.99507800
132.99999868,-10.00062000
133.49999867,-10.02215000
133.99999865,-9.91510800
134.49999864,-9.68811500
134.99999862,-9.63336600
135.49999861,-9.75209100
135.99999860,-9.86220500
136.49999858,-9.95939900
136.99999857,-10.00861000
137.49999855,-9.99753900
137.99999854,-9.99753900
138.49999853,-10.00861000
138.99999851,-9.95632300
139.49999850,-9.84867000
139.99999848,-9.79084600
140.49999847,-9.77977300
140.99999845,-9.89234600
141.49999844,-10.13041000
141.99999843,-10.13041000
142.49999841,-9.89234600
142.99999840,-9.77977300
143.49999838,-9.79084600
143.99999837,-9.84867000
144.49999836,-9.95632300
144.99999834,-10.01169000
145.49999833,-10.01169000
145.99999831,-9.95386200
146.49999830,-9.83452200
146.99999829,-9.83452200
147.49999827,-9.95386200
147.99999826,-10.00308000
148.49999824,-9.97047100
148.99999823,-10.08059000
149.49999821,-10.32911000
149.99999820,-10.27990000
150.49999819,-9.94463500
150.99999817,-9.72748500
151.49999816,-9.64136300
151.99999814,-9.65243500
152.49999813,-9.78223300
152.99999812,-9.78223300
153.49999810,-9.65243500
153.99999809,-9.65243500
154.49999807,-9.78223300
154.99999806,-9.78223300
155.49999804,-9.65243500
155.99999803,-9.64689900
156.49999802,-9.75516700
156.99999800,-9.86466500
157.49999799,-9.97293300
157.99999797,-9.96739700
158.49999796,-9.83759800
158.99999795,-9.83452200
159.49999793,-9.95386200
159.99999792,-10.01169000
160.49999790,-10.01169000
160.99999789,-9.95939900
161.49999787,-9.86220500
161.99999786,-9.74963100
162.49999785,-9.61983200
162.99999783,-9.72687000
163.49999782,-10.06213000
163.99999780,-10.22146000
164.49999779,-10.18824000
164.99999778,-10.18824000
165.49999776,-10.22146000
165.99999775,-10.05905000
166.49999773,-9.71333600
166.99999772,-9.66104800
167.49999771,-9.90957200
167.99999769,-10.02768000
168.49999768,-10.02768000
168.99999766,-9.91818300
169.49999765,-9.70164800
169.99999763,-9.59461100
170.49999762,-9.60568300
170.99999761,-9.66350800
171.49999759,-9.77116100
171.99999758,-9.82098900
172.49999756,-9.79884200
172.99999755,-9.85420700
173.49999754,-9.98400600
173.99999752,-9.93171700
174.49999751,-9.70472400
174.99999749,-9.59215000
175.49999748,-9.59215000
175.99999746,-9.70164800
176.49999745,-9.91818300
176.99999744,-10.02522000
177.49999742,-10.01415000
177.99999741,-9.95632300
178.49999739,-9.84867000
178.99999738,-9.79330700
179.49999737,-9.79330700
179.99999735,-9.85113100
180.49999734,-9.97047100
180.99999732,-9.97293300
181.49999731,-9.86466500
181.99999730,-9.75516700
182.49999728,-9.64689900
182.99999727,-9.64689900
183.49999725,-9.75516700
183.99999724,-9.86220500
184.49999722,-9.95939900
184.99999721,-10.01415000
185.49999720,-10.02522000
185.99999718,-9.91510800
186.49999717,-9.68811500
186.99999715,-9.63890200
187.49999714,-9.77977300
187.99999713,-9.78223300
188.49999711,-9.65243500
188.99999710,-9.64936000
189.49999708,-9.76870100
189.99999707,-9.82344900
190.49999705,-9.81237700
190.99999704,-9.80745600
191.49999703,-9.79638200
191.99999701,-9.85113100
192.49999700,-9.97047100
192.99999698,-9.97047100
193.49999697,-9.85113100
193.99999696,-9.79330700
194.49999694,-9.79330700
194.99999693,-9.84867000
195.49999691,-9.95632300
195.99999690,-10.01169000
196.49999689,-10.01169000
196.99999687,-9.96186000
197.49999686,-9.87573700
197.99999684,-9.71641300
198.49999683,-9.50049200
198.99999681,-9.44512700
199.49999680,-9.55339500
199.99999679,-9.71825700
200.49999677,-9.93417800
200.99999676,-9.98646600
201.49999674,-9.86774200
201.99999673,-9.75516700
202.49999672,-9.64689900
202.99999670,-9.65243500
203.49999669,-9.78223300
203.99999667,-9.77977300
204.49999666,-9.63890200
204.99999664,-9.69365100
205.49999663,-9.94279000
205.99999662,-9.94279000
206.49999660,-9.69365100
206.99999659,-9.63336600
207.49999657,-9.75209100
207.99999656,-9.86220500
208.49999655,-9.95939900
208.99999653,-10.00861000
209.49999652,-9.99753900
209.99999650,-9.99261800
210.49999649,-9.98154500
210.99999648,-10.03629000
211.49999646,-10.15563000
211.99999645,-10.15810000
212.49999643,-10.04983000
212.99999642,-9.94586600
213.49999640,-9.85912800
213.99999639,-9.75762700
214.49999638,-9.66043300
214.99999636,-9.60814500
215.49999635,-9.60814500
215.99999633,-9.66350800
216.49999632,-9.77116100
216.99999631,-9.82652600
217.49999629,-9.82652600
217.99999628,-9.77116100
218.49999626,-9.66350800
218.99999625,-9.61122000
219.49999623,-9.62229300
219.99999622,-9.61921700
220.49999621,-9.59768700
220.99999619,-9.70718500
221.49999618,-9.94525100
221.99999616,-9.94279000
222.49999615,-9.69365100
222.99999614,-9.63582600
223.49999612,-9.76562400
223.99999611,-9.82098900
224.49999609,-9.79884200
224.99999608,-9.84867000
225.49999606,-9.95632300
225.99999605,-10.01169000
226.49999604,-10.01169000
226.99999602,-9.95386200
227.49999601,-9.83452200
227.99999599,-9.83452200
228.49999598,-9.95386200
228.99999597,-10.01415000
229.49999595,-10.02522000
229.99999594,-9.91510800
230.49999592,-9.68811500
230.99999591,-9.63336600
231.49999590,-9.75209100
231.99999588,-9.87020200
232.49999587,-9.99999900
232.99999585,-9.89050200
233.49999584,-9.54416800
233.99999582,-9.43466900
234.49999581,-9.56446800
234.99999580,-9.67396600
235.49999578,-9.76070300
235.99999577,-9.86466500
236.49999575,-9.97293300
236.99999574,-9.97600800
237.49999573,-9.87881400
237.99999571,-9.71887300
238.49999570,-9.51402500
238.99999568,-9.40391200
239.49999567,-9.39283900
239.99999565,-9.55524100
240.49999564,-9.87942800
240.99999563,-10.03875000
241.49999561,-10.01722000
241.99999560,-9.95386200
242.49999558,-9.83452200
242.99999557,-9.83452200
243.49999556,-9.95386200
243.99999554,-10.00861000
244.49999553,-9.99753900
244.99999551,-10.00062000
245.49999550,-10.02215000
245.99999549,-9.91510800
246.49999547,-9.68811500
246.99999546,-9.63890200
247.49999544,-9.77977300
247.99999543,-9.78531000
248.49999541,-9.66596900
248.99999540,-9.60568300
249.49999539,-9.59461100
249.99999537,-9.70164800
250.49999536,-9.91818300
250.99999534,-10.02215000
251.49999533,-10.00062000
251.99999532,-9.98954200
252.49999530,-9.96801100
252.99999529,-10.08305000
253.49999527,-10.34264000
253.99999526,-10.23561000
254.49999524,-9.77054600
254.99999523,-9.60875900
255.49999522,-9.76008800
255.99999520,-9.82344900
256.49999519,-9.81237700
256.99999517,-9.81237700
257.49999516,-9.82344900
257.99999515,-9.76562400
258.49999513,-9.63582600
258.99999512,-9.68565500
259.49999510,-9.90157400
259.99999509,-10.06090000
260.49999508,-10.14702000
260.99999506,-10.19931000
261.49999505,-10.21038000
261.99999503,-10.10335000
262.49999502,-9.88681100
262.99999500,-9.78284900
263.49999499,-9.80437900
263.99999498,-9.81237700
264.49999496,-9.82344900
264.99999495,-9.76562400
265.49999493,-9.63582600
265.99999492,-9.69119100
266.49999491,-9.92864100
266.99999489,-9.98092900
267.49999488,-9.84005800
267.99999486,-9.83206100
268.49999485,-9.94033000
268.99999483,-10.05290000
269.49999482,-10.17163000
269.99999481,-10.11934000
270.49999479,-9.90342000
270.99999478,-9.73855800
271.49999476,-9.63029000
271.99999475,-9.68811500
272.49999474,-9.91510800
272.99999472,-10.02522000
273.49999471,-10.01415000
273.99999469,-9.95386200
274.49999468,-9.83452200
274.99999466,-9.83206100
275.49999465,-9.94033000
275.99999464,-10.04983000
276.49999462,-10.15810000
276.99999461,-10.16117000
277.49999459,-10.06398000
277.99999458,-9.90157400
278.49999457,-9.68565500
278.99999455,-9.63336600
279.49999454,-9.75209100
279.99999452,-9.85912800
280.49999451,-9.94586600
280.99999450,-10.04983000
281.49999448,-10.15810000
281.99999447,-10.15810000
282.49999445,-10.04983000
282.99999444,-9.94033000
283.49999442,-9.83206100
283.99999441,-9.83206100
284.49999440,-9.94033000
284.99999438,-10.05536000
285.49999437,-10.18516000
285.99999435,-10.07812000
286.49999434,-9.74286400
286.99999433,-9.57800100
287.49999431,-9.58907400
287.99999430,-9.70164800
288.49999428,-9.91818300
288.99999427,-10.02215000
289.49999425,-10.00062000
289.99999424,-9.99753900
290.49999423,-10.00861000
290.99999421,-9.95386200
291.49999420,-9.83452200
291.99999418,-9.83452200
292.49999417,-9.95386200
292.99999416,-10.01169000
293.49999414,-10.01169000
293.99999413,-9.95632300
294.49999411,-9.84867000
294.99999410,-9.79330700
295.49999409,-9.79330700
295.99999407,-9.84867000
296.49999406,-9.95632300
296.99999404,-10.01169000
297.49999403,-10.01169000
297.99999401,-9.96186000
298.49999400,-9.87573700
298.99999399,-9.71887300
299.49999397,-9.51402500
299.99999396,-9.40698800
300.49999394,-9.40698800
300.99999393,-9.51956200
301.49999392,-9.74655400
301.99999390,-9.79576800
302.49999389,-9.65489600
302.99999387,-9.64689900
303.49999386,-9.75516700
303.99999384,-9.86220500
304.49999383,-9.95939900
304.99999382,-10.01415000
305.49999380,-10.02522000
305.99999379,-9.91510800
306.49999377,-9.68811500
306.99999376,-9.63582600
307.49999375,-9.76562400
307.99999373,-9.82098900
308.49999372,-9.79884200
308.99999370,-9.85113100
309.49999369,-9.97047100
309.99999368,-9.97047100
310.49999366,-9.85113100
310.99999365,-9.79330700
311.49999363,-9.79330700
311.99999362,-9.84867000
312.49999360,-9.95632300
312.99999359,-10.00861000
313.49999358,-9.99753900
313.99999356,-9.99507800
314.49999355,-9.99507800
314.99999353,-9.99507800
315.49999352,-9.99507800
315.99999351,-9.99507800
316.49999349,-9.99507800
316.99999348,-10.00062000
317.49999346,-10.02215000
317.99999345,-9.91510800
318.49999343,-9.68811500
318.99999342,-9.63336600
319.49999341,-9.75209100
319.99999339,-9.86220500
320.49999338,-9.95939900
320.99999336,-10.01415000
321.49999335,-10.02522000
321.99999334,-9.91264700
322.49999332,-9.67458200
322.99999331,-9.67704200
323.49999329,-9.92618100
323.99999328,-9.98400600
324.49999327,-9.85420700
324.99999325,-9.79884200
325.49999324,-9.82098900
325.99999322,-9.77116100
326.49999321,-9.66350800
326.99999319,-9.60814500
327.49999318,-9.60814500
327.99999317,-9.66043300
328.49999315,-9.75762700
328.99999314,-9.86220500
329.49999312,-9.95939900
329.99999311,-10.00861000
330.49999310,-9.99753900
330.99999308,-9.99753900
331.49999307,-10.00861000
331.99999305,-9.95078800
332.49999304,-9.82098900
332.99999302,-9.87881400
333.49999301,-10.12795000
333.99999300,-10.12795000
334.49999298,-9.87881400
334.99999297,-9.82098900
335.49999295,-9.95078800
335.99999294,-10.00861000
336.49999293,-9.99753900
336.99999291,-9.99753900
337.49999290,-10.00861000
337.99999288,-9.95632300
338.49999287,-9.84867000
338.99999285,-9.79084600
339.49999284,-9.77977300
339.99999283,-9.88681100
340.49999281,-10.10335000
340.99999280,-10.21284000
341.49999278,-10.21284000
341.99999277,-10.10027000
342.49999276,-9.87327700
342.99999274,-9.82098900
343.49999273,-9.95078800
343.99999271,-10.00861000
344.49999270,-9.99753900
344.99999269,-9.99507800
345.49999267,-9.99507800
345.99999266,-10.00062000
346.49999264,-10.02215000
346.99999263,-9.91818300
347.49999261,-9.70164800
347.99999260,-9.59215000
348.49999259,-9.59215000
348.99999257,-9.70718500
349.49999256,-9.94525100
349.99999254,-9.94279000
350.49999253,-9.69365100
350.99999252,-9.63336600
351.49999250,-9.75209100
351.99999249,-9.86466500
352.49999247,-9.97293300
352.99999246,-9.97047100
353.49999244,-9.85113100
353.99999243,-9.79330700
354.49999242,-9.79330700
354.99999240,-9.84559500
355.49999239,-9.94279000
355.99999237,-10.04983000
356.49999236,-10.15810000
356.99999235,-10.15810000
357.49999233,-10.04983000
357.99999232,-9.94033000
358.49999230,-9.83206100
358.99999229,-9.83452200
359.49999228,-9.95386200
359.99999226,-10.01169000
360.49999225,-10.01169000
360.99999223,-9.95939900
361.49999222,-9.86220500
361.99999220,-9.76070300
362.49999219,-9.67396600
362.99999218,-9.57000400
363.49999216,-9.46173700
363.99999215,-9.45866100
364.49999213,-9.55585600
364.99999212,-9.71825700
365.49999211,-9.93417800
365.99999209,-9.98646600
366.49999208,-9.86774200
366.99999206,-9.75516700
367.49999205,-9.64689900
367.99999203,-9.64689900
368.49999202,-9.75516700
368.99999201,-9.86466500
369.49999199,-9.97293300
369.99999198,-9.97047100
370.49999196,-9.85113100
370.99999195,-9.79084600
371.49999194,-9.77977300
371.99999192,-9.88988600
372.49999191,-10.11688000
372.99999189,-10.17470000
373.49999188,-10.06644000
373.99999187,-9.90157400
374.49999185,-9.68565500
374.99999184,-9.63582600
375.49999182,-9.76562400
375.99999181,-9.82652600
376.49999179,-9.82652600
376.99999178,-9.76316400
377.49999177,-9.62229300
377.99999175,-9.72933000
378.49999174,-10.07566000
378.99999172,-10.18270000
379.49999171,-10.04183000
379.99999170,-9.98154500
380.49999168,-9.99261800
380.99999167,-10.00308000
381.49999165,-10.03629000
381.99999164,-9.87389300
382.49999162,-9.52817300
382.99999161,-9.47280900
383.49999160,-9.71087600
383.99999158,-9.87881400
384.49999157,-9.97600800
384.99999155,-9.97047100
385.49999154,-9.85113100
385.99999153,-9.79330700
386.49999151,-9.79330700
386.99999150,-9.84867000
387.49999148,-9.95632300
387.99999147,-10.00861000
388.49999145,-9.99753900
388.99999144,-10.00062000
389.49999143,-10.02215000
389.99999141,-9.91510800
390.49999140,-9.68811500
390.99999138,-9.63336600
391.49999137,-9.75209100
391.99999136,-9.86220500
392.49999134,-9.95939900
392.99999133,-10.01169000
393.49999131,-10.01169000
393.99999130,-9.95632300
394.49999129,-9.84867000
394.99999127,-9.79330700
395.49999126,-9.79330700
395.99999124,-9.84559500
396.49999123,-9.94279000
396.99999121,-10.05290000
397.49999120,-10.17163000
397.99999119,-10.11688000
398.49999117,-9.88988600
398.99999116,-9.77977300
399.49999114,-9.79084600
399.99999113,-9.85113100
400.49999112,-9.97047100
400.99999110,-9.97047100
401.49999109,-9.85113100
401.99999107,-9.79330700
402.49999106,-9.79330700
402.99999104,-9.85420700
403.49999103,-9.98400600
403.99999102,-9.92618100
404.49999100,-9.67704200
404.99999099,-9.68011800
405.49999097,-9.93971300
405.99999096,-9.94279000
406.49999095,-9.69365100
406.99999093,-9.63336600
407.49999092,-9.75209100
407.99999090,-9.86774200
408.49999089,-9.98646600
408.99999088,-9.93171700
409.49999086,-9.70472400
409.99999085,-9.59461100
410.49999083,-9.60568300
410.99999082,-9.66043300
411.49999080,-9.75762700
411.99999079,-9.86220500
412.49999078,-9.95939900
412.99999076,-10.01415000
413.49999075,-10.02522000
413.99999073,-9.91510800
414.49999072,-9.68811500
414.99999071,-9.63336600
415.49999069,-9.75209100
415.99999068,-9.86774200
416.49999066,-9.98646600
416.99999065,-9.92618100
417.49999063,-9.67704200
417.99999062,-9.67458200
418.49999061,-9.91264700
418.99999059,-10.02215000
419.49999058,-10.00062000
419.99999056,-9.99753900
420.49999055,-10.00861000
420.99999054,-9.95939900
421.49999052,-9.86220500
421.99999051,-9.75209100
422.49999049,-9.63336600
422.99999048,-9.68811500
423.49999047,-9.91510800
423.99999045,-10.02215000
424.49999044,-10.00062000
424.99999042,-9.99507800
425.49999041,-9.99507800
425.99999039,-9.99753900
426.49999038,-10.00861000
426.99999037,-9.95939900
427.49999035,-9.86220500
427.99999034,-9.75209100
428.49999032,-9.63336600
428.99999031,-9.69365100
429.49999030,-9.94279000
429.99999028,-9.94525100
430.49999027,-9.70718500
430.99999025,-9.59215000
431.49999024,-9.59215000
431.99999022,-9.70472400
432.49999021,-9.93171700
432.99999020,-9.98646600
433.49999018,-9.86774200
433.99999017,-9.75209100
434.49999015,-9.63336600
434.99999014,-9.68565500
435.49999013,-9.90157400
435.99999011,-10.06398000
436.49999010,-10.16117000
436.99999008,-10.16363000
437.49999007,-10.07751000
437.99999006,-9.86281900
438.49999004,-9.53863100
438.99999003,-9.43159500
439.49999001,-9.55032000
439.99999000,-9.72133400
440.49998998,-9.94832700
440.99998997,-9.94279000
441.49998996,-9.69365100
441.99998994,-9.63582600
442.49998993,-9.76562400
442.99998991,-9.82344900
443.49998990,-9.81237700
443.99998989,-9.80991600
444.49998987,-9.80991600
444.99998986,-9.81237700
445.49998984,-9.82344900
445.99998983,-9.76870100
446.49998981,-9.64936000
446.99998980,-9.64382400
447.49998979,-9.74101800
447.99998977,-9.90342000
448.49998976,-10.11934000
448.99998974,-10.17470000
449.49998973,-10.06644000
449.99998972,-9.89849900
450.49998970,-9.67150600
450.99998969,-9.67458200
451.49998967,-9.91264700
451.99998966,-10.02215000
452.49998964,-10.00062000
452.99998963,-9.99753900
453.49998962,-10.00861000
453.99998960,-9.95386200
454.49998959,-9.83452200
454.99998957,-9.82898600
455.49998956,-9.92618100
455.99998955,-10.08858000
456.49998953,-10.30450000
456.99998952,-10.35679000
457.49998950,-10.23807000
457.99998949,-10.13103000
458.49998948,-10.04429000
458.99998946,-9.94033000
459.49998945,-9.83206100
459.99998943,-9.83206100
460.49998942,-9.94033000
460.99998940,-10.05290000
461.49998939,-10.17163000
461.99998938,-10.11688000
462.49998936,-9.88988600
462.99998935,-9.77977300
463.49998933,-9.79084600
463.99998932,-9.84867000
464.49998931,-9.95632300
464.99998929,-10.01415000
465.49998928,-10.02522000
465.99998926,-9.91818300
466.49998925,-9.70164800
466.99998923,-9.59215000
467.49998922,-9.59215000
467.99998921,-9.70164800
468.49998919,-9.91818300
468.99998918,-10.02768000
469.49998916,-10.02768000
469.99998915,-9.91510800
470.49998914,-9.68811500
470.99998912,-9.63029000
471.49998911,-9.73855800
471.99998909,-9.90649500
472.49998908,-10.13349000
472.99998907,-10.13041000
473.49998905,-9.89234600
473.99998904,-9.78531000
474.49998902,-9.81791200
474.99998901,-9.77116100
475.49998899,-9.66350800
475.99998898,-9.60568300
476.49998897,-9.59461100
476.99998895,-9.70164800
477.49998894,-9.91818300
477.99998892,-10.02215000
478.49998891,-10.00062000
478.99998890,-9.99261800
479.49998888,-9.98154500
479.99998887,-10.03629000
480.49998885,-10.15563000
480.99998884,-10.15810000
481.49998882,-10.04983000
481.99998881,-9.94033000
482.49998880,-9.83206100
482.99998878,-9.83452200
483.49998877,-9.95386200
483.99998875,-10.00861000
484.49998874,-9.99753900
484.99998873,-9.99507800
485.49998871,-9.99507800
485.99998870,-9.99753900
486.49998868,-10.00861000
486.99998867,-9.95386200
487.49998866,-9.83452200
487.99998864,-9.83452200
488.49998863,-9.95386200
488.99998861,-10.00861000
489.49998860,-9.99753900
489.99998858,-9.99753900
490.49998857,-10.00861000
490.99998856,-9.95632300
491.49998854,-9.84867000
491.99998853,-9.79330700
492.49998851,-9.79330700
492.99998850,-9.85113100
493.49998849,-9.97047100
493.99998847,-9.96739700
494.49998846,-9.83759800
494.99998844,-9.83206100
495.49998843,-9.94033000
495.99998841,-10.04983000
496.49998840,-10.15810000
496.99998839,-10.15563000
497.49998837,-10.03629000
497.99998836,-9.98400600
498.49998834,-10.00615000
498.99998833,-9.95632300
499.49998832,-9.84867000
499.99998830,-9.79638200
500.49998829,-9.80745600
500.99998827,-9.80991600
501.49998826,-9.80991600
501.99998824,-9.80991600
502.49998823,-9.80991600
502.99998822,-9.80745600
503.49998820,-9.79638200
503.99998819,-9.84867000
504.49998817,-9.95632300
504.99998816,-10.00861000
505.49998815,-9.99753900
505.99998813,-9.99753900
506.49998812,-10.00861000
506.99998810,-9.95386200
507.49998809,-9.83452200
507.99998808,-9.83206100
508.49998806,-9.94033000
508.99998805,-10.05536000
509.49998803,-10.18516000
509.99998802,-10.07566000
510.49998800,-9.72933000
510.99998799,-9.61983200
511.49998798,-9.74963100
511.99998796,-9.86466500
512.49998795,-9.97293300
512.99998793,-9.97293300
513.49998792,-9.86466500
513.99998791,-9.75516700
514.49998789,-9.64689900
514.99998788,-9.64936000
515.49998786,-9.76870100
515.99998785,-9.82344900
516.49998783,-9.81237700
516.99998782,-9.80991600
517.49998781,-9.80991600
517.99998779,-9.80991600
518.49998778,-9.80991600
518.99998776,-9.80745600
519.49998775,-9.79638200
519.99998774,-9.85420700
520.49998772,-9.98400600
520.99998771,-9.93171700
521.49998769,-9.70472400
521.99998768,-9.59461100
522.49998767,-9.60568300
522.99998765,-9.66043300
523.49998764,-9.75762700
523.99998762,-9.85912800
524.49998761,-9.94586600
524.99998759,-10.05536000
525.49998758,-10.18516000
525.99998757,-10.07812000
526.49998755,-9.74286400
526.99998754,-9.57800100
527.49998752,-9.58907400
527.99998751,-9.70164800
528.49998750,-9.91818300
528.99998748,-10.02215000
529.49998747,-10.00062000
529.99998745,-9.99507800
530.49998744,-9.99507800
530.99998742,-9.99507800
531.49998741,-9.99507800
531.99998740,-9.99507800
532.49998738,-9.99507800
532.99998737,-9.99753900
533.49998735,-10.00861000
533.99998734,-9.95632300
534.49998733,-9.84867000
534.99998731,-9.79330700
535.49998730,-9.79330700
535.99998728,-9.84867000
536.49998727,-9.95632300
536.99998726,-10.01169000
537.49998724,-10.01169000
537.99998723,-9.95632300
538.49998721,-9.84867000
538.99998720,-9.79884200
539.49998718,-9.82098900
539.99998717,-9.76562400
540.49998716,-9.63582600
540.99998714,-9.69672700
541.49998713,-9.95632300
541.99998711,-9.90403500
542.49998710,-9.54724300
542.99998709,-9.43159500
543.49998707,-9.55032000
543.99998706,-9.71825700
544.49998704,-9.93417800
544.99998703,-9.98400600
545.49998701,-9.85420700
545.99998700,-9.79330700
546.49998699,-9.79330700
546.99998697,-9.84559500
547.49998696,-9.94279000
547.99998694,-10.04429000
548.49998693,-10.13103000
548.99998692,-10.23499000
549.49998690,-10.34326000
549.99998689,-10.34326000
550.49998687,-10.23499000
550.99998686,-10.12795000
551.49998685,-10.03076000
551.99998683,-9.98400600
552.49998682,-10.00615000
552.99998680,-9.95386200
553.49998679,-9.83452200
553.99998677,-9.84005800
554.49998676,-9.98092900
554.99998675,-9.92864100
555.49998673,-9.69119100
555.99998672,-9.62783000
556.49998670,-9.72502400
556.99998669,-9.94463500
557.49998668,-10.27990000
557.99998666,-10.33772000
558.49998665,-10.12119000
558.99998663,-9.84128900
559.49998662,-9.49495500
559.99998660,-9.54478300
560.49998659,-9.97662400
560.99998658,-10.37525000
561.49998656,-10.75418000
561.99998655,-10.46014000
562.49998653,-9.57492500
562.99998652,-8.53407900
563.49998651,-7.48769700
563.99998649,-6.73474400
564.49998648,-6.44438900
564.99998646,-6.18048700
565.49998645,-6.08452200
565.99998643,-5.63115100
566.49998642,-4.91879900
566.99998641,-4.45435500
567.49998639,-4.31471400
567.99998638,-4.23228400
568.49998636,-4.26488700
568.99998635,-4.23782000
569.49998634,-4.20583200
569.99998632,-3.80228800
570.49998631,-3.11146600
570.99998629,-2.48769700
571.49998628,-2.02386800
571.99998627,-1.77411400
572.49998625,-1.79564500
572.99998624,-1.95804600
573.49998622,-2.24901600
573.99998621,-2.54613700
574.49998619,-2.77189900
574.99998618,-3.23634300
575.49998617,-3.86257400
575.99998615,-4.13447300
576.49998614,-4.03727900
576.99998612,-3.60297700
577.49998611,-2.85802100
577.99998610,-2.46801200
578.49998608,-2.43540800
578.99998607,-2.96567400
579.49998605,-4.00221400
579.99998604,-4.74963100
580.49998602,-5.13779500
580.99998601,-5.00861200
581.49998600,-4.32763300
581.99998598,-3.93762300
582.49998597,-3.84042800
582.99998595,-4.06311500
583.49998594,-4.60322300
583.99998593,-4.91387800
584.49998591,-4.94525100
584.99998590,-5.08858300
585.49998588,-5.29343000
585.99998587,-5.40907900
586.49998586,-5.44168300
586.99998584,-5.19438900
587.49998583,-4.73056100
587.99998581,-4.10125500
588.49998580,-3.38890200
588.99998578,-3.05118100
589.49998577,-3.08255400
589.99998576,-3.86011300
590.49998574,-5.26328700
590.99998573,-6.46345900
591.49998571,-7.29392200
591.99998570,-7.69746500
592.49998569,-7.58981300
592.99998567,-7.07062000
593.49998566,-6.21801100
593.99998564,-5.22637700
594.49998563,-4.23351400
594.99998561,-3.76107300
595.49998560,-3.86934000
595.99998559,-4.43467000
596.49998557,-5.36294300
596.99998556,-6.55757800
597.49998554,-7.84202700
597.99998553,-8.57591100
598.49998552,-8.66203200
598.99998550,-8.12622900
599.49998549,-7.01402500
599.99998547,-6.00885800
600.49998546,-5.22084100
600.99998545,-5.02583600
601.49998543,-5.47920800
601.99998542,-6.01254900
602.49998540,-6.57357200
602.99998539,-7.08722900
603.49998537,-7.46493600
603.99998536,-7.60765200
604.49998535,-7.46678100
604.99998533,-7.35666800
605.49998532,-7.28161900
605.99998530,-7.10322300
606.49998529,-6.79995000
606.99998528,-7.13767200
607.49998526,-8.01181100
607.99998525,-9.06926600
608.49998523,-10.19254000
608.99998522,-10.63177000
609.49998520,-10.37340000
609.99998519,-9.31840500
610.49998518,-7.59104300
610.99998516,-6.29982700
611.49998515,-5.54318400
611.99998513,-6.07344900
612.49998512,-7.83403000
612.99998511,-9.47404000
613.49998509,-10.81201000
613.99998508,-11.47638000
614.49998506,-11.34658000
614.99998505,-10.66006000
615.49998503,-9.49434000
615.99998502,-8.30524100
616.49998501,-7.28038800
616.99998499,-6.55265700
617.49998498,-6.22846900
617.99998496,-6.64308500
618.49998495,-7.73314400
618.99998494,-8.93639300
619.49998492,-10.09104000
619.99998491,-10.82431000
620.49998489,-11.04085000
620.99998488,-10.51858000
621.49998487,-9.33132400
621.99998485,-8.05671800
622.49998484,-6.82578700
622.99998482,-6.50713500
623.49998481,-7.13336600
623.99998479,-8.19328200
624.49998478,-9.57554100
624.99998477,-10.62192000
625.49998475,-11.19341000
625.99998474,-11.12205000
626.49998472,-10.37709000
626.99998471,-9.64628400
627.49998470,-9.03174100
627.99998468,-8.36429600
628.49998467,-7.75959600
628.99998465,-7.59165800
629.49998464,-7.86171200
629.99998462,-8.60605200
630.49998461,-9.75086100
630.99998460,-10.38816000
631.49998458,-10.45275000
631.99998457,-10.12857000
632.49998455,-9.43774600
632.99998454,-8.70447800
633.49998453,-8.02411400
633.99998451,-7.65317400
634.49998450,-7.63164300
634.99998448,-8.10408500
635.49998447,-9.01082700
635.99998446,-9.79392100
636.49998444,-10.34387000
636.99998443,-10.64653000
637.49998441,-10.63546000
637.99998440,-10.36602000
638.49998438,-9.85851400
638.99998437,-9.43282500
639.49998436,-9.13078200
639.99998434,-9.12524500
640.49998433,-9.40514200
640.99998431,-9.92433500
641.49998430,-10.60470000
641.99998429,-11.17064000
642.49998427,-11.52621000
642.99998426,-11.73782000
643.49998424,-11.78088000
643.99998423,-11.36626000
644.49998421,-10.55672000
644.99998420,-9.88127400
645.49998419,-9.43897600
645.99998417,-9.13139700
646.49998416,-9.01267100
646.99998414,-9.27903600
647.49998413,-9.90526500
647.99998412,-10.38878000
648.49998410,-10.69144000
648.99998409,-10.62500000
649.49998407,-10.17101000
649.99998406,-9.90772500
650.49998405,-9.86466500
650.99998403,-9.71887300
651.49998402,-9.51402500
651.99998400,-9.39837600
652.49998399,-9.36577200
652.99998397,-9.63767100
653.49998396,-10.19993000
653.99998395,-10.35925000
654.49998393,-10.09966000
654.99998392,-9.93725300
655.49998390,-9.88373500
655.99998389,-9.67765700
656.49998388,-9.35347000
656.99998386,-9.24089500
657.49998385,-9.33809100
657.99998383,-9.60999000
658.49998382,-10.04245000
658.99998380,-10.20177000
659.49998379,-10.07197000
659.99998378,-9.90157400
660.49998376,-9.68565500
660.99998375,-9.64997500
661.49998373,-9.83390700
661.99998372,-9.63951700
662.49998371,-9.12093900
662.99998369,-8.68971400
663.49998368,-8.37659800
663.99998366,-8.43134900
664.49998365,-8.85273100
664.99998364,-9.26488700
665.49998362,-9.59830200
665.99998361,-10.06028000
666.49998359,-10.56779000
666.99998358,-10.77079000
667.49998356,-10.63054000
667.99998355,-10.46813000
668.49998354,-10.29527000
668.99998352,-10.03998000
669.49998351,-9.74840100
669.99998349,-9.53678600
670.49998348,-9.42913300
670.99998347,-9.52755900
671.49998345,-9.80868600
671.99998344,-10.22576000
672.49998342,-10.72281000
672.99998341,-11.03592000
673.49998339,-11.12205000
673.99998338,-11.00886000
674.49998337,-10.69636000
674.99998335,-10.42692000
675.49998334,-10.22146000
675.99998332,-10.22699000
676.49998331,-10.45399000
676.99998330,-10.62500000
677.49998328,-10.74372000
677.99998327,-10.63669000
678.49998325,-10.31250000
678.99998324,-10.10089000
679.49998322,-10.02522000
679.99998321,-9.97846900
680.49998320,-9.97846900
680.99998318,-10.02830000
681.49998317,-10.11442000
681.99998315,-10.27374000
682.49998314,-10.48967000
682.99998313,-10.54195000
683.49998311,-10.42323000
683.99998310,-10.31619000
684.49998308,-10.22945000
684.99998307,-10.13902000
685.49998306,-10.08551000
685.99998304,-9.82467900
686.49998303,-9.39222300
686.99998301,-9.23289900
687.49998300,-9.36269600
687.99998298,-9.53617100
688.49998297,-9.76316400
688.99998296,-9.76316400
689.49998294,-9.53617100
689.99998293,-9.37623000
690.49998291,-9.30118100
690.99998290,-9.20214100
691.49998289,-9.10556000
691.99998287,-9.05081200
692.49998286,-9.03973900
692.99998284,-9.14431600
693.49998283,-9.34916300
693.99998281,-9.49741600
694.49998280,-9.55093500
694.99998279,-9.75393700
695.49998277,-10.06705000
695.99998276,-10.22945000
696.49998274,-10.22945000
696.99998273,-10.05905000
697.49998272,-9.71333600
697.99998270,-9.65551100
698.49998269,-9.88250400
698.99998267,-10.09658000
699.49998266,-10.27990000
699.99998265,-10.42876000
700.49998263,-10.50381000
700.99998262,-10.61085000
701.49998260,-10.74065000
701.99998259,-10.63361000
702.49998257,-10.29835000
702.99998256,-10.13902000
703.49998255,-10.17224000
703.99998253,-10.18024000
704.49998252,-10.18024000
704.99998250,-10.17778000
705.49998249,-10.16671000
705.99998248,-10.21900000
706.49998246,-10.32665000
706.99998245,-10.37894000
707.49998243,-10.36786000
707.99998242,-10.36540000
708.49998240,-10.36540000
708.99998239,-10.36786000
709.49998238,-10.37894000
709.99998236,-10.31865000
710.49998235,-10.17778000
710.99998233,-10.28482000
711.49998232,-10.63115000
711.99998231,-10.74065000
712.49998229,-10.61085000
712.99998228,-10.50381000
713.49998226,-10.42876000
713.99998225,-10.27744000
714.49998224,-10.08305000
714.99998222,-9.92618100
715.49998221,-9.82898600
715.99998219,-9.83759800
716.49998218,-9.96739700
716.99998216,-9.97846900
717.49998215,-9.89234600
717.99998214,-9.68626900
718.49998212,-9.39468400
718.99998211,-9.13078200
719.49998209,-8.92593500
719.99998208,-8.92347400
720.49998207,-9.11724900
720.99998205,-9.43590000
721.49998204,-9.84621000
721.99998202,-10.05536000
722.49998201,-10.03322000
722.99998199,-9.93171700
723.49998198,-9.76993100
723.99998197,-9.39899100
724.49998195,-8.85949800
724.99998194,-8.69463500
725.49998192,-8.91055600
725.99998191,-9.27903600
726.49998190,-9.75332200
726.99998188,-10.21469000
727.49998187,-10.58194000
727.99998185,-10.84276000
728.49998184,-10.96149000
728.99998182,-10.74988000
729.49998181,-10.23130000
729.99998180,-9.81114700
730.49998178,-9.54170700
730.99998177,-9.39037900
731.49998175,-9.39037900
731.99998174,-9.54970500
732.49998173,-9.85236300
732.99998171,-10.11872000
733.49998170,-10.32419000
733.99998168,-10.32419000
734.49998167,-10.11872000
734.99998166,-9.84928600
735.49998164,-9.53617100
735.99998163,-9.43159500
736.49998161,-9.55032000
736.99998160,-9.70718500
737.49998158,-9.88004400
737.99998157,-10.14641000
738.49998156,-10.48167000
738.99998154,-10.48167000
739.49998153,-10.14641000
739.99998151,-9.87696700
740.49998150,-9.69365100
740.99998149,-9.59215000
741.49998147,-9.59215000
741.99998146,-9.69057600
742.49998144,-9.86343500
742.99998143,-10.17101000
743.49998141,-10.55979000
743.99998140,-10.87537000
744.49998139,-11.08022000
744.99998137,-11.03100000
745.49998136,-10.74003000
745.99998134,-10.31988000
746.49998133,-9.82283500
746.99998132,-9.51218000
747.49998130,-9.43713000
747.99998129,-9.49495500
748.49998127,-9.68934500
748.99998126,-9.96124500
749.49998125,-10.29650000
749.99998123,-10.29650000
750.49998122,-9.96124500
750.99998120,-9.69488100
751.49998119,-9.52202200
751.99998117,-9.37069300
752.49998116,-9.27349900
752.99998115,-9.27657400
753.49998113,-9.38484200
753.99998112,-9.48080600
754.49998110,-9.53432600
754.99998109,-9.79515200
755.49998108,-10.22761000
755.99998106,-10.38447000
756.49998105,-10.24360000
756.99998103,-10.13656000
757.49998102,-10.07197000
757.99998100,-9.85728400
758.49998099,-9.51156400
758.99998098,-9.51156400
759.49998096,-9.85728400
759.99998095,-10.07751000
760.49998093,-10.16363000
760.99998092,-10.16117000
761.49998091,-10.06398000
761.99998089,-9.91264700
762.49998088,-9.73978800
762.99998086,-9.48203700
763.49998085,-9.17999500
763.99998084,-9.01820900
764.49998082,-9.00713500
764.99998081,-9.22674700
765.49998079,-9.66966000
765.99998078,-9.82344900
766.49998076,-9.66043300
766.99998075,-9.64689900
767.49998074,-9.75516700
767.99998072,-9.86220500
768.49998071,-9.95939900
768.99998069,-10.00861000
769.49998068,-9.99753900
769.99998067,-9.98400600
770.49998065,-9.94033000
770.99998064,-10.14948000
771.49998062,-10.58132000
771.99998061,-10.78740000
772.49998059,-10.73327000
772.99998058,-10.78556000
773.49998057,-10.93688000
773.99998055,-10.77756000
774.49998054,-10.32357000
774.99998052,-10.15563000
775.49998051,-10.27497000
775.99998050,-10.50320000
776.49998048,-10.84892000
776.99998047,-10.84892000
777.49998045,-10.50320000
777.99998044,-10.29158000
778.49998043,-10.23807000
778.99998041,-10.08920000
779.49998040,-9.88435100
779.99998038,-9.77423700
780.49998037,-9.76316400
780.99998035,-9.93110200
781.49998034,-10.27682000
781.99998033,-10.33218000
782.49998031,-10.09412000
782.99998030,-9.92925600
783.49998028,-9.84313500
783.99998027,-9.79884200
784.49998026,-9.82098900
784.99998024,-9.77423700
785.49998023,-9.67704200
785.99998021,-9.57246500
786.49998020,-9.47527000
786.99998018,-9.42298100
787.49998017,-9.42298100
787.99998016,-9.47280900
788.49998014,-9.55893100
788.99998013,-9.72133400
789.49998011,-9.94832700
789.99998010,-9.94832700
790.49998009,-9.72133400
790.99998007,-9.55339500
791.49998006,-9.44512700
791.99998004,-9.51402500
792.49998003,-9.78469400
792.99998001,-9.68565500
793.49998000,-9.24335600
793.99997999,-8.97391600
794.49997997,-8.89886800
794.99997996,-8.90132800
795.49997994,-8.98745100
795.99997993,-9.19352800
796.49997992,-9.48449700
796.99997990,-9.74286400
797.49997989,-9.92618100
797.99997987,-10.02522000
798.49997986,-10.01415000
798.99997985,-9.95386200
799.49997983,-9.83452200
799.99997982,-9.83452200
800.49997980,-9.95386200
800.99997979,-10.00615000
801.49997977,-9.98400600
801.99997976,-10.02830000
802.49997975,-10.11442000
802.99997973,-10.27128000
803.49997972,-10.47613000
803.99997970,-10.57763000
804.49997969,-10.55610000
804.99997968,-10.55610000
805.49997966,-10.57763000
805.99997965,-10.47059000
806.49997963,-10.24360000
806.99997962,-10.18885000
807.49997960,-10.30758000
807.99997959,-10.42015000
808.49997958,-10.52842000
808.99997956,-10.52842000
809.49997955,-10.42015000
809.99997953,-10.31619000
810.49997952,-10.22945000
810.99997951,-10.12549000
811.49997949,-10.01722000
811.99997948,-10.01169000
812.49997946,-10.09781000
812.99997945,-10.32357000
813.49997944,-10.69082000
813.99997942,-10.58378000
814.49997941,-10.01107000
814.99997939,-9.73917300
815.49997938,-9.78223300
815.99997936,-9.85420700
816.49997935,-9.98400600
816.99997934,-9.93171700
817.49997932,-9.70472400
817.99997931,-9.60014700
818.49997929,-9.63275100
818.99997928,-9.58046200
819.49997927,-9.45066500
819.99997925,-9.50848900
820.49997924,-9.75762700
820.99997922,-9.76562400
821.49997921,-9.54970500
821.99997919,-9.33255400
822.49997918,-9.12770700
822.99997917,-9.06988100
823.49997915,-9.15600400
823.99997914,-9.42790200
824.49997912,-9.87081600
824.99997911,-9.97231800
825.49997910,-9.71272100
825.99997908,-9.60014700
826.49997907,-9.63275100
826.99997905,-9.57800100
827.49997904,-9.43713000
827.99997903,-9.53617100
828.49997901,-9.84928600
828.99997900,-10.11319000
829.49997898,-10.29650000
829.99997897,-10.39555000
830.49997895,-10.38447000
830.99997894,-10.32111000
831.49997893,-10.19131000
831.99997891,-10.25221000
832.49997890,-10.51181000
832.99997888,-10.45952000
833.49997887,-10.10273000
833.99997886,-9.98708100
834.49997884,-10.10581000
834.99997883,-10.26821000
835.49997881,-10.46260000
835.99997880,-10.61639000
836.49997878,-10.70251000
836.99997877,-10.75480000
837.49997876,-10.76587000
837.99997874,-10.66437000
838.49997873,-10.46998000
838.99997871,-10.25529000
839.49997870,-10.03937000
839.99997869,-10.04491000
840.49997867,-10.28297000
840.99997866,-10.39801000
841.49997864,-10.39801000
841.99997863,-10.29097000
842.49997861,-10.08612000
842.99997860,-9.92372000
843.49997859,-9.81545200
843.99997857,-9.87081600
844.49997856,-10.08674000
844.99997854,-10.25160000
845.49997853,-10.35987000
845.99997852,-10.30758000
846.49997850,-10.10212000
846.99997849,-9.89050200
847.49997847,-9.69611200
847.99997846,-9.60014700
848.49997845,-9.63275100
848.99997843,-9.58599900
849.49997842,-9.47834600
849.99997840,-9.42052100
850.49997839,-9.40944900
850.99997837,-9.51956200
851.49997836,-9.74655400
851.99997835,-9.79884200
852.49997833,-9.66904400
852.99997832,-9.61368100
853.49997830,-9.63582600
853.99997829,-9.58599900
854.49997828,-9.47834600
854.99997826,-9.41744600
855.49997825,-9.39591400
855.99997823,-9.55524100
856.49997822,-9.87942800
856.99997820,-10.03875000
857.49997819,-10.01722000
857.99997818,-9.96186000
858.49997816,-9.87573700
858.99997815,-9.71641300
859.49997813,-9.50049200
859.99997812,-9.44512700
860.49997811,-9.55339500
860.99997809,-9.71579600
861.49997808,-9.92064400
861.99997806,-10.02215000
862.49997805,-10.00062000
862.99997804,-9.99507800
863.49997802,-9.99507800
863.99997801,-10.00062000
864.49997799,-10.02215000
864.99997798,-9.92064400
865.49997796,-9.71579600
865.99997795,-9.55339500
866.49997794,-9.44512700
866.99997792,-9.49741600
867.49997791,-9.70287800
867.99997789,-9.91449300
868.49997788,-10.10888000
868.99997787,-10.21038000
869.49997785,-10.19931000
869.99997784,-10.14456000
870.49997782,-10.04737000
870.99997781,-9.93725300
871.49997779,-9.81852800
871.99997778,-9.87081600
872.49997777,-10.08674000
872.99997775,-10.24914000
873.49997774,-10.34633000
873.99997772,-10.34633000
874.49997771,-10.24914000
874.99997770,-10.09227000
875.49997768,-9.89788300
875.99997767,-9.73855800
876.49997765,-9.63029000
876.99997764,-9.68811500
877.49997763,-9.91510800
877.99997761,-10.02215000
878.49997760,-10.00062000
878.99997758,-9.99261800
879.49997757,-9.98154500
879.99997755,-10.04183000
880.49997754,-10.18270000
880.99997753,-10.08366000
881.49997751,-9.77054600
881.99997750,-9.50110600
882.49997748,-9.29564500
882.99997747,-9.29871900
883.49997746,-9.51464100
883.99997744,-9.73179100
884.49997743,-9.93725300
884.99997741,-9.98646600
885.49997740,-9.86774200
885.99997738,-9.75762700
886.49997737,-9.66043300
886.99997736,-9.60568300
887.49997734,-9.59461100
887.99997733,-9.70718500
888.49997731,-9.94525100
888.99997730,-9.94279000
889.49997729,-9.69365100
889.99997727,-9.63582600
890.49997726,-9.76562400
890.99997724,-9.82652600
891.49997723,-9.82652600
891.99997722,-9.76870100
892.49997720,-9.64936000
892.99997719,-9.65489600
893.49997717,-9.79576800
893.99997716,-9.74101800
894.49997714,-9.49187900
894.99997713,-9.48388300
895.49997712,-9.69980200
895.99997710,-9.91695300
896.49997709,-10.12242000
896.99997707,-10.17470000
897.49997706,-10.06644000
897.99997705,-9.90157400
898.49997703,-9.68565500
898.99997702,-9.63582600
899.49997700,-9.76562400
899.99997699,-9.82098900
900.49997697,-9.79884200
900.99997696,-9.84867000
901.49997695,-9.95632300
901.99997693,-10.00861000
902.49997692,-9.99753900
