Time,Channel B
(ns),(mV)

-100.99999470,-9.97047100
-100.49999472,-9.85113100
-99.99999473,-9.79638200
-99.49999474,-9.80745600
-98.99999476,-9.80991600
-98.49999477,-9.80991600
-97.99999479,-9.80745600
-97.49999480,-9.79638200
-96.99999481,-9.85420700
-96.49999483,-9.98400600
-95.99999484,-9.92864100
-95.49999486,-9.69119100
-94.99999487,-9.63336600
-94.49999488,-9.75209100
-93.99999490,-9.86774200
-93.49999491,-9.98646600
-92.99999493,-9.93171700
-92.49999494,-9.70472400
-91.99999496,-9.59215000
-91.49999497,-9.59215000
-90.99999498,-9.70164800
-90.49999500,-9.91818300
-89.99999501,-10.02215000
-89.49999503,-10.00062000
-88.99999504,-9.99753900
-88.49999505,-10.00861000
-87.99999507,-9.95632300
-87.49999508,-9.84867000
-86.99999510,-9.79638200
-86.49999511,-9.80745600
-85.99999513,-9.80745600
-85.49999514,-9.79638200
-84.99999515,-9.84867000
-84.49999517,-9.95632300
-83.99999518,-10.01415000
-83.49999520,-10.02522000
-82.99999521,-9.91818300
-82.49999522,-9.70164800
-81.99999524,-9.59215000
-81.49999525,-9.59215000
-80.99999527,-9.70472400
-80.49999528,-9.93171700
-79.99999529,-9.98400600
-79.49999531,-9.85420700
-78.99999532,-9.79330700
-78.49999534,-9.79330700
-77.99999535,-9.85420700
-77.49999537,-9.98400600
-76.99999538,-9.93171700
-76.49999539,-9.70472400
-75.99999541,-9.59461100
-75.49999542,-9.60568300
-74.99999544,-9.66043300
-74.49999545,-9.75762700
-73.99999546,-9.86220500
-73.49999548,-9.95939900
-72.99999549,-10.01169000
-72.49999551,-10.01169000
-71.99999552,-9.95386200
-71.49999554,-9.83452200
-70.99999555,-9.83452200
-70.49999556,-9.95386200
-69.99999558,-10.00861000
-69.49999559,-9.99753900
-68.99999561,-9.99753900
-68.49999562,-10.00861000
-67.99999563,-9.95632300
-67.49999565,-9.84867000
-66.99999566,-9.79638200
-66.49999568,-9.80745600
-65.99999569,-9.80745600
-65.49999571,-9.79638200
-64.99999572,-9.85113100
-64.49999573,-9.97047100
-63.99999575,-9.97047100
-63.49999576,-9.85113100
-62.99999578,-9.79330700
-62.49999579,-9.79330700
-61.99999580,-9.84867000
-61.49999582,-9.95632300
-60.99999583,-10.01169000
-60.49999585,-10.01169000
-59.99999586,-9.95632300
-59.49999587,-9.84867000
-58.99999589,-9.79330700
-58.49999590,-9.79330700
-57.99999592,-9.84867000
-57.49999593,-9.95632300
-56.99999595,-10.01415000
-56.49999596,-10.02522000
-55.99999597,-9.91264700
-55.49999599,-9.67458200
-54.99999600,-9.67458200
-54.49999602,-9.91264700
-53.99999603,-10.02215000
-53.49999604,-10.00062000
-52.99999606,-9.99753900
-52.49999607,-10.00861000
-51.99999609,-9.95632300
-51.49999610,-9.84867000
-50.99999612,-9.79884200
-50.49999613,-9.82098900
-49.99999614,-9.76562400
-49.49999616,-9.63582600
-48.99999617,-9.69365100
-48.49999619,-9.94279000
-47.99999620,-9.94279000
-47.49999621,-9.69365100
-46.99999623,-9.63336600
-46.49999624,-9.75209100
-45.99999626,-9.86220500
-45.49999627,-9.95939900
-44.99999628,-10.00861000
-44.49999630,-9.99753900
-43.99999631,-9.99507800
-43.49999633,-9.99507800
-42.99999634,-9.99261800
-42.49999636,-9.98154500
-41.99999637,-10.03629000
-41.49999638,-10.15563000
-40.99999640,-10.16117000
-40.49999641,-10.06398000
-39.99999643,-9.90157400
-39.49999644,-9.68565500
-38.99999645,-9.63029000
-38.49999647,-9.73855800
-37.99999648,-9.90342000
-37.49999650,-10.11934000
-36.99999651,-10.16917000
-36.49999653,-10.03937000
-35.99999654,-9.98400600
-35.49999655,-10.00615000
-34.99999657,-9.95632300
-34.49999658,-9.84867000
-33.99999660,-9.79330700
-33.49999661,-9.79330700
-32.99999662,-9.85420700
-32.49999664,-9.98400600
-31.99999665,-9.92864100
-31.49999667,-9.69119100
-30.99999668,-9.63336600
-30.49999669,-9.75209100
-29.99999671,-9.86466500
-29.49999672,-9.97293300
-28.99999674,-9.97047100
-28.49999675,-9.85113100
-27.99999677,-9.79330700
-27.49999678,-9.79330700
-26.99999679,-9.84867000
-26.49999681,-9.95632300
-25.99999682,-10.00861000
-25.49999684,-9.99753900
-24.99999685,-9.99753900
-24.49999686,-10.00861000
-23.99999688,-9.95632300
-23.49999689,-9.84867000
-22.99999691,-9.79638200
-22.49999692,-9.80745600
-21.99999694,-9.80991600
-21.49999695,-9.80991600
-20.99999696,-9.80745600
-20.49999698,-9.79638200
-19.99999699,-9.85113100
-19.49999701,-9.97047100
-18.99999702,-9.97047100
-18.49999703,-9.85113100
-17.99999705,-9.79084600
-17.49999706,-9.77977300
-16.99999708,-9.89234600
-16.49999709,-10.13041000
-15.99999710,-10.13041000
-15.49999712,-9.89234600
-14.99999713,-9.77731200
-14.49999715,-9.77731200
-13.99999716,-9.88988600
-13.49999718,-10.11688000
-12.99999719,-10.17163000
-12.49999720,-10.05290000
-11.99999722,-9.94033000
-11.49999723,-9.83206100
-10.99999725,-9.83452200
-10.49999726,-9.95386200
-9.99999727,-10.00861000
-9.49999729,-9.99753900
-8.99999730,-10.00062000
-8.49999732,-10.02215000
-7.99999733,-9.91510800
-7.49999735,-9.68811500
-6.99999736,-9.63336600
-6.49999737,-9.75209100
-5.99999739,-9.86774200
-5.49999740,-9.98646600
-4.99999742,-9.92864100
-4.49999743,-9.69119100
-3.99999744,-9.63890200
-3.49999746,-9.77977300
-2.99999747,-9.78531000
-2.49999749,-9.66596900
-1.99999750,-9.60568300
-1.49999752,-9.59461100
-0.99999753,-9.70718500
-0.49999754,-9.94525100
0.00000244,-9.94279000
0.50000243,-9.69365100
1.00000241,-9.63336600
1.50000240,-9.75209100
2.00000239,-9.86220500
2.50000237,-9.95939900
3.00000236,-10.01169000
3.50000234,-10.01169000
4.00000233,-9.95386200
4.50000232,-9.83452200
5.00000230,-9.83452200
5.50000229,-9.95386200
6.00000227,-10.01169000
6.50000226,-10.01169000
7.00000224,-9.95939900
7.50000223,-9.86220500
8.00000222,-9.75516700
8.50000220,-9.64689900
9.00000219,-9.64689900
9.50000217,-9.75516700
10.00000216,-9.86220500
10.50000215,-9.95939900
11.00000213,-10.01169000
11.50000212,-10.01169000
12.00000210,-9.96186000
12.50000209,-9.87573700
13.00000207,-9.71333600
13.50000206,-9.48634300
14.00000205,-9.48634300
14.50000203,-9.71333600
15.00000202,-9.87881400
15.50000200,-9.97600800
16.00000199,-9.96739700
16.50000198,-9.83759800
17.00000196,-9.83452200
17.50000195,-9.95386200
18.00000193,-10.00861000
18.50000192,-9.99753900
19.00000191,-9.99507800
19.50000189,-9.99507800
20.00000188,-9.99507800
20.50000186,-9.99507800
21.00000185,-9.99507800
21.50000183,-9.99507800
22.00000182,-9.99753900
22.50000181,-10.00861000
23.00000179,-9.95386200
23.50000178,-9.83452200
24.00000176,-9.83452200
24.50000175,-9.95386200
25.00000174,-10.00615000
25.50000172,-9.98400600
26.00000171,-10.03937000
26.50000169,-10.16917000
27.00000168,-10.11934000
27.50000166,-9.90342000
28.00000165,-9.74101800
28.50000164,-9.64382400
29.00000162,-9.64936000
29.50000161,-9.76870100
30.00000159,-9.82344900
30.50000158,-9.81237700
31.00000157,-9.81237700
31.50000155,-9.82344900
32.00000154,-9.76870100
32.50000152,-9.64936000
33.00000151,-9.64689900
33.50000150,-9.75516700
34.00000148,-9.86466500
34.50000147,-9.97293300
35.00000145,-9.96739700
35.50000144,-9.83759800
36.00000142,-9.83452200
36.50000141,-9.95386200
37.00000140,-10.00615000
37.50000138,-9.98400600
38.00000137,-10.03383000
38.50000135,-10.14149000
39.00000134,-10.20239000
39.50000133,-10.22392000
40.00000131,-10.06213000
40.50000130,-9.72687000
41.00000128,-9.61675600
41.50000127,-9.73548200
42.00000125,-9.90649500
42.50000124,-10.13349000
43.00000123,-10.12795000
43.50000121,-9.87881400
44.00000120,-9.82406500
44.50000118,-9.96493600
45.00000117,-9.97293300
45.50000116,-9.86466500
46.00000114,-9.75209100
46.50000113,-9.63336600
47.00000111,-9.69365100
47.50000110,-9.94279000
48.00000108,-9.93971300
48.50000107,-9.68011800
49.00000106,-9.67458200
49.50000104,-9.91264700
50.00000103,-10.02522000
50.50000101,-10.01415000
51.00000100,-9.95939900
51.50000099,-9.86220500
52.00000097,-9.75516700
52.50000096,-9.64689900
53.00000094,-9.64689900
53.50000093,-9.75516700
54.00000092,-9.86220500
54.50000090,-9.95939900
55.00000089,-10.01169000
55.50000087,-10.01169000
56.00000086,-9.95632300
56.50000084,-9.84867000
57.00000083,-9.79330700
57.50000082,-9.79330700
58.00000080,-9.85113100
58.50000079,-9.97047100
59.00000077,-9.97293300
59.50000076,-9.86466500
60.00000075,-9.75762700
60.50000073,-9.66043300
61.00000072,-9.60814500
61.50000070,-9.60814500
62.00000069,-9.65797200
62.50000067,-9.74409400
63.00000066,-9.90895600
63.50000065,-10.14702000
64.00000063,-10.08920000
64.50000062,-9.73240600
65.00000060,-9.62536900
65.50000059,-9.77669800
66.00000058,-9.78223300
66.50000056,-9.65243500
67.00000055,-9.64936000
67.50000053,-9.76870100
68.00000052,-9.82098900
68.50000051,-9.79884200
69.00000049,-9.84867000
69.50000048,-9.95632300
70.00000046,-10.00861000
70.50000045,-9.99753900
71.00000043,-10.00062000
71.50000042,-10.02215000
72.00000041,-9.91818300
72.50000039,-9.70164800
73.00000038,-9.59215000
73.50000036,-9.59215000
74.00000035,-9.70718500
74.50000034,-9.94525100
75.00000032,-9.94279000
75.50000031,-9.69365100
76.00000029,-9.63890200
76.50000028,-9.77977300
77.00000026,-9.78223300
77.50000025,-9.65243500
78.00000024,-9.64689900
78.50000022,-9.75516700
79.00000021,-9.86774200
79.50000019,-9.98646600
80.00000018,-9.92864100
80.50000017,-9.69119100
81.00000015,-9.63582600
81.50000014,-9.76562400
82.00000012,-9.82344900
82.50000011,-9.81237700
83.00000010,-9.81237700
83.50000008,-9.82344900
84.00000007,-9.77116100
84.50000005,-9.66350800
85.00000004,-9.60568300
85.50000002,-9.59461100
86.00000001,-9.70164800
86.50000000,-9.91818300
86.99999998,-10.02768000
87.49999997,-10.02768000
87.99999995,-9.91510800
88.49999994,-9.68811500
88.99999993,-9.63336600
89.49999991,-9.75209100
89.99999990,-9.86220500
90.49999988,-9.95939900
90.99999987,-10.00861000
91.49999985,-9.99753900
91.99999984,-9.99507800
92.49999983,-9.99507800
92.99999981,-9.99507800
93.49999980,-9.99507800
93.99999978,-9.99507800
94.49999977,-9.99507800
94.99999976,-10.00062000
95.49999974,-10.02215000
95.99999973,-9.91510800
96.49999971,-9.68811500
96.99999970,-9.63582600
97.49999969,-9.76562400
97.99999967,-9.82344900
98.49999966,-9.81237700
98.99999964,-9.81237700
99.49999963,-9.82344900
99.99999961,-9.76870100
100.49999960,-9.64936000
100.99999959,-9.64382400
101.49999957,-9.74101800
101.99999956,-9.90096000
102.49999954,-10.10581000
102.99999953,-10.21592000
103.49999952,-10.22699000
103.99999950,-10.06213000
104.49999949,-9.72687000
104.99999947,-9.61983200
105.49999946,-9.74963100
105.99999944,-9.86466500
106.49999943,-9.97293300
106.99999942,-9.97047100
107.49999940,-9.85113100
107.99999939,-9.79330700
108.49999937,-9.79330700
108.99999936,-9.84867000
109.49999935,-9.95632300
109.99999933,-10.00861000
110.49999932,-9.99753900
110.99999930,-9.99753900
111.49999929,-10.00861000
111.99999927,-9.95632300
112.49999926,-9.84867000
112.99999925,-9.79330700
113.49999923,-9.79330700
113.99999922,-9.84867000
114.49999920,-9.95632300
114.99999919,-10.00861000
115.49999918,-9.99753900
115.99999916,-9.99261800
116.49999915,-9.98154500
116.99999913,-10.03629000
117.49999912,-10.15563000
117.99999911,-10.15563000
118.49999909,-10.03629000
118.99999908,-9.98708100
119.49999906,-10.01968000
119.99999905,-9.91510800
120.49999903,-9.68811500
120.99999902,-9.63582600
121.49999901,-9.76562400
121.99999899,-9.82652600
122.49999898,-9.82652600
122.99999896,-9.76870100
123.49999895,-9.64936000
123.99999894,-9.65243500
124.49999892,-9.78223300
124.99999891,-9.78531000
125.49999889,-9.66596900
125.99999888,-9.60568300
126.49999886,-9.59461100
126.99999885,-9.70718500
127.49999884,-9.94525100
127.99999882,-9.94279000
128.49999881,-9.69365100
128.99999879,-9.63582600
129.49999878,-9.76562400
129.99999877,-9.82098900
130.49999875,-9.79884200
130.99999874,-9.85113100
131.49999872,-9.97047100
131.99999871,-9.96739700
132.49999870,-9.83759800
132.99999868,-9.83759800
133.49999867,-9.96739700
133.99999865,-9.97047100
134.49999864,-9.85113100
134.99999862,-9.79884200
135.49999861,-9.82098900
135.99999860,-9.77116100
136.49999858,-9.66350800
136.99999857,-9.60260800
137.49999855,-9.58107800
137.99999854,-9.74286400
138.49999853,-10.07812000
138.99999851,-10.18270000
139.49999850,-10.04183000
139.99999848,-9.98154500
140.49999847,-9.99261800
140.99999845,-9.99753900
141.49999844,-10.00861000
141.99999843,-9.95078800
142.49999841,-9.82098900
142.99999840,-9.88188800
143.49999838,-10.14149000
143.99999837,-10.08920000
144.49999836,-9.73240600
144.99999834,-9.61983200
145.49999833,-9.74963100
145.99999831,-9.86466500
146.49999830,-9.97293300
146.99999829,-9.97293300
147.49999827,-9.86466500
147.99999826,-9.75516700
148.49999824,-9.64689900
148.99999823,-9.64689900
149.49999821,-9.75516700
149.99999820,-9.85912800
150.49999819,-9.94586600
150.99999817,-10.04983000
151.49999816,-10.15810000
151.99999814,-10.15810000
152.49999813,-10.04983000
152.99999812,-9.94033000
153.49999810,-9.83206100
153.99999809,-9.83452200
154.49999807,-9.95386200
154.99999806,-10.00861000
155.49999804,-9.99753900
155.99999803,-9.99753900
156.49999802,-10.00861000
156.99999800,-9.95632300
157.49999799,-9.84867000
157.99999797,-9.79330700
158.49999796,-9.79330700
158.99999795,-9.85420700
159.49999793,-9.98400600
159.99999792,-9.92864100
160.49999790,-9.69119100
160.99999789,-9.63582600
161.49999787,-9.76562400
161.99999786,-9.82652600
162.49999785,-9.82652600
162.99999783,-9.77116100
163.49999782,-9.66350800
163.99999780,-9.60814500
164.49999779,-9.60814500
164.99999778,-9.65797200
165.49999776,-9.74409400
165.99999775,-9.90342000
166.49999773,-10.11934000
166.99999772,-10.16917000
167.49999771,-10.03937000
167.99999769,-9.98400600
168.49999768,-10.00615000
168.99999766,-9.95078800
169.49999765,-9.82098900
169.99999763,-9.87635300
170.49999762,-10.11380000
170.99999761,-10.16917000
171.49999759,-10.03937000
171.99999758,-9.98154500
172.49999756,-9.99261800
172.99999755,-9.99753900
173.49999754,-10.00861000
173.99999752,-9.95632300
174.49999751,-9.84867000
174.99999749,-9.79884200
175.49999748,-9.82098900
175.99999746,-9.76870100
176.49999745,-9.64936000
176.99999744,-9.64936000
177.49999742,-9.76870100
177.99999741,-9.82652600
178.49999739,-9.82652600
178.99999738,-9.76870100
179.49999737,-9.64936000
179.99999735,-9.64936000
180.49999734,-9.76870100
180.99999732,-9.82098900
181.49999731,-9.79884200
181.99999730,-9.84559500
182.49999728,-9.94279000
182.99999727,-10.05290000
183.49999725,-10.17163000
183.99999724,-10.11688000
184.49999722,-9.88988600
184.99999721,-9.77977300
185.49999720,-9.79084600
185.99999718,-9.84867000
186.49999717,-9.95632300
186.99999715,-10.00861000
187.49999714,-9.99753900
187.99999713,-9.99507800
188.49999711,-9.99507800
188.99999710,-9.99507800
189.49999708,-9.99507800
189.99999707,-9.99507800
190.49999705,-9.99507800
190.99999704,-10.00062000
191.49999703,-10.02215000
191.99999701,-9.91264700
192.49999700,-9.67458200
192.99999698,-9.67458200
193.49999697,-9.91264700
193.99999696,-10.02768000
194.49999694,-10.02768000
194.99999693,-9.92064400
195.49999691,-9.71579600
195.99999690,-9.55339500
196.49999689,-9.44512700
196.99999687,-9.50049200
197.49999686,-9.71641300
197.99999684,-9.87573700
198.49999683,-9.96186000
198.99999681,-10.01169000
199.49999680,-10.01169000
199.99999679,-9.95386200
200.49999677,-9.83452200
200.99999676,-9.83452200
201.49999674,-9.95386200
201.99999673,-10.01415000
202.49999672,-10.02522000
202.99999670,-9.91264700
203.49999669,-9.67458200
203.99999667,-9.67704200
204.49999666,-9.92618100
204.99999664,-9.98400600
205.49999663,-9.85420700
205.99999662,-9.79084600
206.49999660,-9.77977300
206.99999659,-9.89542300
207.49999657,-10.14395000
207.99999656,-10.09166000
208.49999655,-9.74594000
208.99999653,-9.57800100
209.49999652,-9.58907400
209.99999650,-9.70164800
210.49999649,-9.91818300
210.99999648,-10.02768000
211.49999646,-10.02768000
211.99999645,-9.91264700
212.49999643,-9.67458200
212.99999642,-9.67458200
213.49999640,-9.91264700
213.99999639,-10.02215000
214.49999638,-10.00062000
214.99999636,-10.00062000
215.49999635,-10.02215000
215.99999633,-9.91510800
216.49999632,-9.68811500
216.99999631,-9.63336600
217.49999629,-9.75209100
217.99999628,-9.86466500
218.49999626,-9.97293300
218.99999625,-9.97047100
219.49999623,-9.85113100
219.99999622,-9.79638200
220.49999621,-9.80745600
220.99999619,-9.80991600
221.49999618,-9.80991600
221.99999616,-9.80437900
222.49999615,-9.78284900
222.99999614,-9.89234600
223.49999612,-10.13041000
223.99999611,-10.13041000
224.49999609,-9.89234600
224.99999608,-9.77731200
225.49999606,-9.77731200
225.99999605,-9.88988600
226.49999604,-10.11688000
226.99999602,-10.17470000
227.49999601,-10.06644000
227.99999599,-9.90157400
228.49999598,-9.68565500
228.99999597,-9.63029000
229.49999595,-9.73855800
229.99999594,-9.90342000
230.49999592,-10.11934000
230.99999591,-10.16917000
231.49999590,-10.03937000
231.99999588,-9.98400600
232.49999587,-10.00615000
232.99999585,-9.95632300
233.49999584,-9.84867000
233.99999582,-9.79638200
234.49999581,-9.80745600
234.99999580,-9.80745600
235.49999578,-9.79638200
235.99999577,-9.85113100
236.49999575,-9.97047100
236.99999574,-9.96739700
237.49999573,-9.83759800
237.99999571,-9.83452200
238.49999570,-9.95386200
238.99999568,-10.01415000
239.49999567,-10.02522000
239.99999565,-9.91264700
240.49999564,-9.67458200
240.99999563,-9.67704200
241.49999561,-9.92618100
241.99999560,-9.98954200
242.49999558,-9.88127400
242.99999557,-9.71333600
243.49999556,-9.48634300
243.99999554,-9.48634300
244.49999553,-9.71333600
244.99999551,-9.87573700
245.49999550,-9.96186000
245.99999549,-10.00861000
246.49999547,-9.99753900
246.99999546,-9.99753900
247.49999544,-10.00861000
247.99999543,-9.95939900
248.49999541,-9.86220500
248.99999540,-9.75516700
249.49999539,-9.64689900
249.99999537,-9.64936000
250.49999536,-9.76870100
250.99999534,-9.82344900
251.49999533,-9.81237700
251.99999532,-9.80991600
252.49999530,-9.80991600
252.99999529,-9.80991600
253.49999527,-9.80991600
253.99999526,-9.80745600
254.49999524,-9.79638200
254.99999523,-9.85113100
255.49999522,-9.97047100
255.99999520,-9.97047100
256.49999519,-9.85113100
256.99999517,-9.79084600
257.49999516,-9.77977300
257.99999515,-9.89234600
258.49999513,-10.13041000
258.99999512,-10.13041000
259.49999510,-9.89234600
259.99999509,-9.77977300
260.49999508,-9.79084600
260.99999506,-9.84867000
261.49999505,-9.95632300
261.99999503,-10.00861000
262.49999502,-9.99753900
262.99999500,-10.00062000
263.49999499,-10.02215000
263.99999498,-9.91264700
264.49999496,-9.67458200
264.99999495,-9.67458200
265.49999493,-9.91264700
265.99999492,-10.02215000
266.49999491,-10.00062000
266.99999489,-9.99507800
267.49999488,-9.99507800
267.99999486,-9.99753900
268.49999485,-10.00861000
268.99999483,-9.95632300
269.49999482,-9.84867000
269.99999481,-9.79638200
270.49999479,-9.80745600
270.99999478,-9.81237700
271.49999476,-9.82344900
271.99999475,-9.76870100
272.49999474,-9.64936000
272.99999472,-9.64689900
273.49999471,-9.75516700
273.99999469,-9.86220500
274.49999468,-9.95939900
274.99999466,-10.01169000
275.49999465,-10.01169000
275.99999464,-9.95386200
276.49999462,-9.83452200
276.99999461,-9.83452200
277.49999459,-9.95386200
277.99999458,-10.00861000
278.49999457,-9.99753900
278.99999455,-9.99753900
279.49999454,-10.00861000
279.99999452,-9.95632300
280.49999451,-9.84867000
280.99999450,-9.79330700
281.49999448,-9.79330700
281.99999447,-9.85113100
282.49999445,-9.97047100
282.99999444,-9.96739700
283.49999442,-9.83759800
283.99999441,-9.83759800
284.49999440,-9.96739700
284.99999438,-9.97047100
285.49999437,-9.85113100
285.99999435,-9.79330700
286.49999434,-9.79330700
286.99999433,-9.85666800
287.49999431,-9.99753900
287.99999430,-9.88496500
288.49999428,-9.51710100
288.99999427,-9.51710100
289.49999425,-9.88496500
289.99999424,-9.99999900
290.49999423,-9.87020200
290.99999421,-9.75762700
291.49999420,-9.66043300
291.99999418,-9.60814500
292.49999417,-9.60814500
292.99999416,-9.65797200
293.49999414,-9.74409400
293.99999413,-9.90096000
294.49999411,-10.10581000
294.99999410,-10.21592000
295.49999409,-10.22699000
295.99999407,-10.06213000
296.49999406,-9.72687000
296.99999404,-9.62229300
297.49999403,-9.76316400
297.99999401,-9.82344900
298.49999400,-9.81237700
298.99999399,-9.80745600
299.49999397,-9.79638200
299.99999396,-9.85113100
300.49999394,-9.97047100
300.99999393,-9.97047100
301.49999392,-9.85113100
301.99999390,-9.79330700
302.49999389,-9.79330700
302.99999387,-9.85113100
303.49999386,-9.97047100
303.99999384,-9.96739700
304.49999383,-9.83759800
304.99999382,-9.83452200
305.49999380,-9.95386200
305.99999379,-10.01415000
306.49999377,-10.02522000
306.99999376,-9.91818300
307.49999375,-9.70164800
307.99999373,-9.59215000
308.49999372,-9.59215000
308.99999370,-9.70164800
309.49999369,-9.91818300
309.99999368,-10.02522000
310.49999366,-10.01415000
310.99999365,-9.95939900
311.49999363,-9.86220500
311.99999362,-9.75516700
312.49999360,-9.64689900
312.99999359,-9.64936000
313.49999358,-9.76870100
313.99999356,-9.82344900
314.49999355,-9.81237700
314.99999353,-9.80991600
315.49999352,-9.80991600
315.99999351,-9.80991600
316.49999349,-9.80991600
316.99999348,-9.80745600
317.49999346,-9.79638200
317.99999345,-9.84867000
318.49999343,-9.95632300
318.99999342,-10.01415000
319.49999341,-10.02522000
319.99999339,-9.91510800
320.49999338,-9.68811500
320.99999336,-9.63336600
321.49999335,-9.75209100
321.99999334,-9.86466500
322.49999332,-9.97293300
322.99999331,-9.96739700
323.49999329,-9.83759800
323.99999328,-9.83452200
324.49999327,-9.95386200
324.99999325,-10.00861000
325.49999324,-9.99753900
325.99999322,-9.99507800
326.49999321,-9.99507800
326.99999319,-9.99753900
327.49999318,-10.00861000
327.99999317,-9.95632300
328.49999315,-9.84867000
328.99999314,-9.79330700
329.49999312,-9.79330700
329.99999311,-9.85113100
330.49999310,-9.97047100
330.99999308,-9.96739700
331.49999307,-9.83759800
331.99999305,-9.83759800
332.49999304,-9.96739700
332.99999302,-9.97047100
333.49999301,-9.85113100
333.99999300,-9.79330700
334.49999298,-9.79330700
334.99999297,-9.85420700
335.49999295,-9.98400600
335.99999294,-9.92864100
336.49999293,-9.69119100
336.99999291,-9.63336600
337.49999290,-9.75209100
337.99999288,-9.86220500
338.49999287,-9.95939900
338.99999285,-10.01415000
339.49999284,-10.02522000
339.99999283,-9.91510800
340.49999281,-9.68811500
340.99999280,-9.63336600
341.49999278,-9.75209100
341.99999277,-9.86220500
342.49999276,-9.95939900
342.99999274,-10.00861000
343.49999273,-9.99753900
343.99999271,-9.99753900
344.49999270,-10.00861000
344.99999269,-9.95078800
345.49999267,-9.82098900
345.99999266,-9.87635300
346.49999264,-10.11380000
346.99999263,-10.17163000
347.49999261,-10.05290000
347.99999260,-9.94832700
348.49999259,-9.87327700
348.99999257,-9.71641300
349.49999256,-9.50049200
349.99999254,-9.44512700
350.49999253,-9.55339500
350.99999252,-9.71825700
351.49999250,-9.93417800
351.99999249,-9.98092900
352.49999247,-9.84005800
352.99999246,-9.83452200
353.49999244,-9.95386200
353.99999243,-10.00861000
354.49999242,-9.99753900
354.99999240,-10.00062000
355.49999239,-10.02215000
355.99999237,-9.91510800
356.49999236,-9.68811500
356.99999235,-9.63336600
357.49999233,-9.75209100
357.99999232,-9.86466500
358.49999230,-9.97293300
358.99999229,-9.97293300
359.49999228,-9.86466500
359.99999226,-9.75516700
360.49999225,-9.64689900
360.99999223,-9.64689900
361.49999222,-9.75516700
361.99999220,-9.86220500
362.49999219,-9.95939900
362.99999218,-10.00861000
363.49999216,-9.99753900
363.99999215,-9.99507800
364.49999213,-9.99507800
364.99999212,-9.99507800
365.49999211,-9.99507800
365.99999209,-9.99507800
366.49999208,-9.99507800
366.99999206,-10.00062000
367.49999205,-10.02215000
367.99999203,-9.91510800
368.49999202,-9.68811500
368.99999201,-9.63029000
369.49999199,-9.73855800
369.99999198,-9.90649500
370.49999196,-10.13349000
370.99999195,-10.13349000
371.49999194,-9.90649500
371.99999192,-9.74101800
372.49999191,-9.64382400
372.99999189,-9.64689900
373.49999188,-9.75516700
373.99999187,-9.86220500
374.49999185,-9.95939900
374.99999184,-10.00861000
375.49999182,-9.99753900
375.99999181,-9.99507800
376.49999179,-9.99507800
376.99999178,-9.99507800
377.49999177,-9.99507800
377.99999175,-10.00062000
378.49999174,-10.02215000
378.99999172,-9.91510800
379.49999171,-9.68811500
379.99999170,-9.63336600
380.49999168,-9.75209100
380.99999167,-9.86220500
381.49999165,-9.95939900
381.99999164,-10.00861000
382.49999162,-9.99753900
382.99999161,-9.99753900
383.49999160,-10.00861000
383.99999158,-9.95386200
384.49999157,-9.83452200
384.99999155,-9.83452200
385.49999154,-9.95386200
385.99999153,-10.01415000
386.49999151,-10.02522000
386.99999150,-9.91264700
387.49999148,-9.67458200
387.99999147,-9.67458200
388.49999145,-9.91264700
388.99999144,-10.02215000
389.49999143,-10.00062000
389.99999141,-9.99507800
390.49999140,-9.99507800
390.99999138,-9.99753900
391.49999137,-10.00861000
391.99999136,-9.95632300
392.49999134,-9.84867000
392.99999133,-9.79330700
393.49999131,-9.79330700
393.99999130,-9.85420700
394.49999129,-9.98400600
394.99999127,-9.92864100
395.49999126,-9.69119100
395.99999124,-9.63582600
396.49999123,-9.76562400
396.99999121,-9.82098900
397.49999120,-9.79884200
397.99999119,-9.84867000
398.49999117,-9.95632300
398.99999116,-10.01169000
399.49999114,-10.01169000
399.99999113,-9.95386200
400.49999112,-9.83452200
400.99999110,-9.83452200
401.49999109,-9.95386200
401.99999107,-10.00861000
402.49999106,-9.99753900
402.99999104,-9.99507800
403.49999103,-9.99507800
403.99999102,-9.99753900
404.49999100,-10.00861000
404.99999099,-9.95386200
405.49999097,-9.83452200
405.99999096,-9.83452200
406.49999095,-9.95386200
406.99999093,-10.01415000
407.49999092,-10.02522000
407.99999090,-9.91264700
408.49999089,-9.67458200
408.99999088,-9.67150600
409.49999086,-9.89849900
409.99999085,-10.06398000
410.49999083,-10.16117000
410.99999082,-10.15563000
411.49999080,-10.03629000
411.99999079,-9.98400600
412.49999078,-10.00615000
412.99999076,-9.95632300
413.49999075,-9.84867000
413.99999073,-9.79330700
414.49999072,-9.79330700
414.99999071,-9.85113100
415.49999069,-9.97047100
415.99999068,-9.97047100
416.49999066,-9.85113100
416.99999065,-9.79330700
417.49999063,-9.79330700
417.99999062,-9.85420700
418.49999061,-9.98400600
418.99999059,-9.93171700
419.49999058,-9.70472400
419.99999056,-9.59768700
420.49999055,-9.61921700
420.99999054,-9.61921700
421.49999052,-9.59768700
421.99999051,-9.70164800
422.49999049,-9.91818300
422.99999048,-10.02522000
423.49999047,-10.01415000
423.99999045,-9.95386200
424.49999044,-9.83452200
424.99999042,-9.83452200
425.49999041,-9.95386200
425.99999039,-10.01415000
426.49999038,-10.02522000
426.99999037,-9.91818300
427.49999035,-9.70164800
427.99999034,-9.59461100
428.49999032,-9.60568300
428.99999031,-9.66350800
429.49999030,-9.77116100
429.99999028,-9.81791200
430.49999027,-9.78531000
430.99999025,-9.89542300
431.49999024,-10.14395000
431.99999022,-10.08920000
432.49999021,-9.73240600
432.99999020,-9.61983200
433.49999018,-9.74963100
433.99999017,-9.86220500
434.49999015,-9.95939900
434.99999014,-10.00861000
435.49999013,-9.99753900
435.99999011,-9.99507800
436.49999010,-9.99507800
436.99999008,-9.99261800
437.49999007,-9.98154500
437.99999006,-10.03629000
438.49999004,-10.15563000
438.99999003,-10.15810000
439.49999001,-10.04983000
439.99999000,-9.94279000
440.49998998,-9.84559500
440.99998997,-9.79638200
441.49998996,-9.80745600
441.99998994,-9.81237700
442.49998993,-9.82344900
442.99998991,-9.76870100
443.49998990,-9.64936000
443.99998989,-9.64936000
444.49998987,-9.76870100
444.99998986,-9.82098900
445.49998984,-9.79884200
445.99998983,-9.84867000
446.49998981,-9.95632300
446.99998980,-10.01169000
447.49998979,-10.01169000
447.99998977,-9.95632300
448.49998976,-9.84867000
448.99998974,-9.79330700
449.49998973,-9.79330700
449.99998972,-9.85113100
450.49998970,-9.97047100
450.99998969,-9.96739700
451.49998967,-9.83759800
451.99998966,-9.83452200
452.49998964,-9.95386200
452.99998963,-10.00615000
453.49998962,-9.98400600
453.99998960,-10.03629000
454.49998959,-10.15563000
454.99998957,-10.15563000
455.49998956,-10.03629000
455.99998955,-9.98400600
456.49998953,-10.00615000
456.99998952,-9.95632300
457.49998950,-9.84867000
457.99998949,-9.79330700
458.49998948,-9.79330700
458.99998946,-9.84867000
459.49998945,-9.95632300
459.99998943,-10.01169000
460.49998942,-10.01169000
460.99998940,-9.95939900
461.49998939,-9.86220500
461.99998938,-9.75209100
462.49998936,-9.63336600
462.99998935,-9.69119100
463.49998933,-9.92864100
463.99998932,-9.98092900
464.49998931,-9.84005800
464.99998929,-9.83452200
465.49998928,-9.95386200
465.99998926,-10.00861000
466.49998925,-9.99753900
466.99998923,-10.00062000
467.49998922,-10.02215000
467.99998921,-9.91818300
468.49998919,-9.70164800
468.99998918,-9.58907400
469.49998916,-9.57800100
469.99998915,-9.74286400
470.49998914,-10.07812000
470.99998912,-10.18824000
471.49998911,-10.06951000
471.99998909,-9.89849900
472.49998908,-9.67150600
472.99998907,-9.67458200
473.49998905,-9.91264700
473.99998904,-10.02215000
474.49998902,-10.00062000
474.99998901,-9.99753900
475.49998899,-10.00861000
475.99998898,-9.95632300
476.49998897,-9.84867000
476.99998895,-9.79330700
477.49998894,-9.79330700
477.99998892,-9.84867000
478.49998891,-9.95632300
478.99998890,-10.01169000
479.49998888,-10.01169000
479.99998887,-9.95939900
480.49998885,-9.86220500
480.99998884,-9.75762700
481.49998882,-9.66043300
481.99998881,-9.60814500
482.49998880,-9.60814500
482.99998878,-9.66043300
483.49998877,-9.75762700
483.99998875,-9.86466500
484.49998874,-9.97293300
484.99998873,-9.97047100
485.49998871,-9.85113100
485.99998870,-9.79638200
486.49998868,-9.80745600
486.99998867,-9.80991600
487.49998866,-9.80991600
487.99998864,-9.80991600
488.49998863,-9.80991600
488.99998861,-9.80991600
489.49998860,-9.80991600
489.99998858,-9.80991600
490.49998857,-9.80991600
490.99998856,-9.80745600
491.49998854,-9.79638200
491.99998853,-9.85113100
492.49998851,-9.97047100
492.99998850,-9.97047100
493.49998849,-9.85113100
493.99998847,-9.79884200
494.49998846,-9.82098900
494.99998844,-9.77423700
495.49998843,-9.67704200
495.99998841,-9.56692900
496.49998840,-9.44820400
496.99998839,-9.50049200
497.49998837,-9.71641300
497.99998836,-9.87573700
498.49998834,-9.96186000
498.99998833,-10.00861000
499.49998832,-9.99753900
499.99998830,-9.99753900
500.49998829,-10.00861000
500.99998827,-9.95386200
501.49998826,-9.83452200
501.99998824,-9.83452200
502.49998823,-9.95386200
502.99998822,-10.01169000
503.49998820,-10.01169000
503.99998819,-9.95386200
504.49998817,-9.83452200
504.99998816,-9.83452200
505.49998815,-9.95386200
505.99998813,-10.00861000
506.49998812,-9.99753900
506.99998810,-9.99507800
507.49998809,-9.99507800
507.99998808,-10.00062000
508.49998806,-10.02215000
508.99998805,-9.91510800
509.49998803,-9.68811500
509.99998802,-9.63336600
510.49998800,-9.75209100
510.99998799,-9.86774200
511.49998798,-9.98646600
511.99998796,-9.93171700
512.49998795,-9.70472400
512.99998793,-9.59215000
513.49998792,-9.59215000
513.99998791,-9.70164800
514.49998789,-9.91818300
514.99998788,-10.02522000
515.49998786,-10.01415000
515.99998785,-9.95632300
516.49998783,-9.84867000
516.99998782,-9.79330700
517.49998781,-9.79330700
517.99998779,-9.84867000
518.49998778,-9.95632300
518.99998776,-10.01169000
519.49998775,-10.01169000
519.99998774,-9.95386200
520.49998772,-9.83452200
520.99998771,-9.82898600
521.49998769,-9.92618100
521.99998768,-10.08858000
522.49998767,-10.30450000
522.99998765,-10.35679000
523.49998764,-10.23807000
523.99998762,-10.13349000
524.49998761,-10.05844000
524.99998759,-9.90403500
525.49998758,-9.69918700
525.99998757,-9.59461100
526.49998755,-9.60568300
526.99998754,-9.66904400
527.49998752,-9.79884200
527.99998751,-9.74101800
528.49998750,-9.49187900
528.99998748,-9.48634300
529.49998747,-9.71333600
529.99998745,-9.87881400
530.49998744,-9.97600800
530.99998742,-9.96739700
531.49998741,-9.83759800
531.99998740,-9.83759800
532.49998738,-9.96739700
532.99998737,-9.96739700
533.49998735,-9.83759800
533.99998734,-9.83452200
534.49998733,-9.95386200
534.99998731,-10.01415000
535.49998730,-10.02522000
535.99998728,-9.91818300
536.49998727,-9.70164800
536.99998726,-9.59215000
537.49998724,-9.59215000
537.99998723,-9.70472400
538.49998721,-9.93171700
538.99998720,-9.98646600
539.49998718,-9.86774200
539.99998717,-9.75762700
540.49998716,-9.66043300
540.99998714,-9.61122000
541.49998713,-9.62229300
541.99998711,-9.61921700
542.49998710,-9.59768700
542.99998709,-9.70718500
543.49998707,-9.94525100
543.99998706,-9.94279000
544.49998704,-9.69365100
544.99998703,-9.63336600
545.49998701,-9.75209100
545.99998700,-9.86466500
546.49998699,-9.97293300
546.99998697,-9.97293300
547.49998696,-9.86466500
547.99998694,-9.74963100
548.49998693,-9.61983200
548.99998692,-9.72687000
549.49998690,-10.06213000
549.99998689,-10.22146000
550.49998687,-10.18824000
550.99998686,-10.18578000
551.49998685,-10.20731000
551.99998683,-10.10581000
552.49998682,-9.90096000
552.99998680,-9.74409400
553.49998679,-9.65797200
553.99998677,-9.61122000
554.49998676,-9.62229300
554.99998675,-9.62475400
555.49998673,-9.62475400
555.99998672,-9.62721400
556.49998670,-9.63828700
556.99998669,-9.58046200
557.49998668,-9.45066500
557.99998666,-9.50049200
558.49998665,-9.71641300
558.99998663,-9.88127400
559.49998662,-9.98954200
559.99998660,-9.92618100
560.49998659,-9.67704200
560.99998658,-9.67150600
561.49998656,-9.89849900
561.99998655,-10.06951000
562.49998653,-10.18824000
562.99998652,-10.07812000
563.49998651,-9.74286400
563.99998649,-9.57800100
564.49998648,-9.58907400
564.99998646,-9.69365100
565.49998645,-9.87696700
565.99998643,-10.14641000
566.49998642,-10.48167000
566.99998641,-10.47613000
567.49998639,-10.11872000
567.99998638,-9.95140200
568.49998636,-9.97293300
568.99998635,-10.03937000
569.49998634,-10.16917000
569.99998632,-10.11934000
570.49998631,-9.90342000
570.99998629,-9.72748500
571.49998628,-9.57615700
571.99998627,-9.85051600
572.49998625,-10.54257000
572.99998624,-10.73819000
573.49998622,-10.48967000
573.99998621,-9.66842900
574.49998619,-8.41658400
574.99998618,-7.18873000
575.49998617,-6.20755400
575.99998615,-5.36478900
576.49998614,-4.86897100
576.99998612,-4.44328300
577.49998611,-4.23905000
577.99998610,-3.85211600
578.49998608,-3.39936000
578.99998607,-2.89370100
579.49998605,-2.44033000
579.99998604,-2.04539800
580.49998602,-1.80856300
580.99998601,-1.53112700
581.49998600,-1.32689500
581.99998598,-0.77202260
582.49998597,0.01537894
582.99998595,0.63607280
583.49998594,0.99163380
583.99998593,1.13742600
584.49998591,1.02915800
584.99998590,0.77940450
585.49998588,0.44537400
585.99998587,-0.17531990
586.49998586,-0.98486700
586.99998584,-1.46284400
587.49998583,-1.56003900
587.99998581,-1.23831200
588.49998580,-0.52534450
588.99998578,0.12303150
589.49998577,0.66252460
589.99998576,0.56902060
590.49998574,-0.12118600
590.99998573,-1.08513800
591.49998571,-2.24101900
591.99998570,-2.59781000
592.49998569,-2.08969000
592.99998567,-1.63078200
593.49998566,-1.19894200
593.99998564,-1.20140300
594.49998563,-1.64431600
594.99998561,-2.01771600
595.49998560,-2.28777100
595.99998559,-2.47723900
596.49998557,-2.51968500
596.99998556,-2.72022600
597.49998554,-3.03334100
597.99998553,-3.20927600
598.49998552,-3.26402500
598.99998550,-2.85740600
599.49998549,-2.07000500
599.99998547,-1.26168800
600.49998546,-0.49458660
600.99998545,-0.57148130
601.49998543,-1.42347400
601.99998542,-2.84387300
602.49998540,-4.65797200
602.99998539,-5.74311000
603.49998537,-5.92519700
603.99998536,-5.80155000
604.49998535,-5.34879400
604.99998533,-4.53001900
605.49998532,-3.49409400
605.99998530,-2.44525100
606.49998529,-1.51636300
606.99998528,-1.39825300
607.49998526,-2.07800200
607.99998525,-3.26710100
608.49998523,-4.77792800
608.99998522,-6.28814000
609.49998520,-7.58366100
609.99998519,-7.94660400
610.49998518,-7.32037400
610.99998516,-6.20201700
611.49998515,-4.70164900
611.99998513,-3.64972900
612.49998512,-3.17482800
612.99998511,-3.40059000
613.49998509,-4.32886300
613.99998508,-5.27128400
614.49998506,-6.10174700
614.99998505,-6.77472900
615.49998503,-7.18503900
615.99998502,-7.01218000
616.49998501,-6.24446300
616.99998499,-5.68959100
617.49998498,-5.35494600
617.99998496,-5.60470000
618.49998495,-6.38164400
618.99998494,-7.36528000
619.49998492,-8.40120500
619.99998491,-9.29379800
620.49998489,-9.93048700
620.99998488,-9.73855800
621.49998487,-8.77829600
621.99998485,-7.34128900
622.49998484,-5.57025100
622.99998482,-4.86712600
623.49998481,-5.27743600
623.99998479,-6.49975400
624.49998478,-8.41043300
624.99998477,-9.87450700
625.49998475,-10.69451000
625.99998474,-10.89259000
626.49998472,-10.41769000
626.99998471,-9.37930500
627.49998470,-7.93307000
627.99998468,-6.57111200
628.49998467,-5.46998000
628.99998465,-5.26390200
629.49998464,-5.98671200
629.99998462,-7.08599900
630.49998461,-8.41289300
630.99998460,-9.65735700
631.49998458,-10.62869000
631.99998457,-10.94734000
632.49998455,-10.58071000
632.99998454,-9.52263700
633.49998453,-7.89247000
633.99998451,-6.78026500
634.49998450,-6.30536400
634.99998448,-6.57726400
635.49998447,-7.58120100
635.99998446,-8.73769700
636.49998444,-9.90342000
636.99998443,-10.63115000
637.49998441,-10.81447000
637.99998440,-10.43861000
638.49998438,-9.53125000
638.99998437,-8.64665300
639.49998436,-7.91277000
639.99998434,-7.34190400
640.49998433,-7.01771600
640.99998431,-7.27054500
641.49998430,-8.04749000
641.99998429,-9.05573300
642.49998427,-10.18947000
642.99998426,-10.61270000
643.49998424,-10.27744000
643.99998423,-9.57984700
644.49998421,-8.57591100
644.99998420,-7.83403000
645.49998419,-7.43417800
645.99998417,-7.59350300
646.49998416,-8.29601300
646.99998414,-9.13939400
647.49998413,-10.02399000
647.99998412,-10.52965000
648.49998410,-10.55057000
648.99998409,-10.53396000
649.49998407,-10.44783000
649.99998406,-10.24729000
650.49998405,-9.97723900
650.99998403,-9.60629800
651.49998402,-9.17445900
651.99998400,-9.11724900
652.49998399,-9.42974900
652.99998397,-9.83882800
653.49998396,-10.27067000
653.99998395,-10.90244000
654.49998393,-11.65846000
654.99998392,-11.77657000
655.49998390,-11.26907000
655.99998389,-10.46998000
656.49998388,-9.45496900
656.99998386,-8.88348900
657.49998385,-8.84104300
657.99998383,-9.01144100
658.49998382,-9.39960700
658.99998380,-9.87758400
659.49998379,-10.39616000
659.99998378,-10.54749000
660.49998376,-10.29835000
660.99998375,-10.07320000
661.49998373,-9.86774200
661.99998372,-9.82406500
662.49998371,-9.96493600
662.99998369,-9.97846900
663.49998368,-9.89234600
663.99998366,-9.67212000
664.49998365,-9.32640300
664.99998364,-9.32332600
665.49998362,-9.65858700
665.99998361,-9.93048700
666.49998359,-10.12488000
666.99998358,-10.18024000
667.49998356,-10.09350000
667.99998355,-9.82467900
668.49998354,-9.39222300
668.99998352,-9.23289900
669.49998351,-9.36269600
669.99998349,-9.53063400
670.49998348,-9.73548200
670.99998347,-9.83452200
671.49998345,-9.80191900
671.99998344,-9.84867000
672.49998342,-9.95632300
672.99998341,-10.02830000
673.49998339,-10.09350000
673.99998338,-9.73609600
674.49998337,-9.02374500
674.99998335,-8.43627000
675.49998334,-8.02534400
675.99998332,-8.06963500
676.49998331,-8.54453700
676.99998330,-9.33009300
677.49998328,-10.32296000
677.99998327,-10.99348000
678.49998325,-11.22970000
678.99998324,-11.26845000
679.49998322,-11.07468000
679.99998321,-10.71174000
680.49998320,-10.23684000
680.99998318,-9.76993100
681.49998317,-9.38115100
681.99998315,-9.22428600
682.49998314,-9.32148100
682.99998313,-9.62967500
683.49998311,-10.09350000
683.99998310,-10.66745000
684.49998308,-11.27214000
684.99998307,-11.53297000
685.49998306,-11.41425000
685.99998304,-11.09559000
686.49998303,-10.60962000
686.99998301,-10.13718000
687.49998300,-9.73794300
687.99998298,-9.63644100
688.49998297,-9.85236300
688.99998296,-10.17655000
689.49998294,-10.58686000
689.99998293,-10.80155000
690.49998291,-10.80155000
690.99998290,-10.58132000
691.49998289,-10.14948000
691.99998287,-9.93479300
692.49998286,-9.95693900
692.99998284,-10.06951000
693.49998283,-10.27436000
693.99998281,-10.42569000
694.49998280,-10.49028000
694.99998279,-10.65207000
695.49998277,-10.90121000
695.99998276,-10.80524000
696.49998274,-10.39432000
696.99998273,-9.97416300
697.49998272,-9.59645700
697.99998270,-9.34916300
698.49998269,-9.29564500
698.99998267,-9.19660400
699.49998266,-9.07849400
699.99998265,-9.13324300
700.49998263,-9.35962100
700.99998262,-9.46665800
701.49998260,-9.44512700
701.99998259,-9.44205100
702.49998257,-9.45312500
702.99998256,-9.40944900
703.49998255,-9.33378400
703.99998253,-9.11417300
704.49998252,-8.75799700
704.99998250,-8.79859600
705.49998249,-9.20890700
705.99998248,-9.68442300
706.49998246,-10.16978000
706.99998245,-10.48044000
707.49998243,-10.56656000
707.99998242,-10.44845000
708.49998240,-10.11319000
708.99998239,-9.94832700
709.49998238,-9.95939900
709.99998236,-10.06644000
710.49998235,-10.26083000
710.99998233,-10.47244000
711.49998232,-10.67790000
711.99998231,-10.72712000
712.49998229,-10.60839000
712.99998228,-10.50135000
713.49998226,-10.41462000
713.99998225,-10.31065000
714.49998224,-10.20239000
714.99998222,-10.20792000
715.49998221,-10.33772000
715.99998219,-10.33526000
716.49998218,-10.19439000
716.99998216,-10.24914000
717.49998215,-10.49828000
717.99998214,-10.50074000
718.49998212,-10.26267000
718.99998211,-10.15563000
719.49998209,-10.18824000
719.99998208,-10.13902000
720.49998207,-10.01968000
720.99998205,-10.01169000
721.49998204,-10.09781000
721.99998202,-10.31250000
722.49998201,-10.63669000
722.99998199,-10.74065000
723.49998198,-10.61085000
723.99998197,-10.50135000
724.49998195,-10.41462000
724.99998194,-10.31865000
725.49998192,-10.24360000
725.99998191,-10.08674000
726.49998190,-9.87081600
726.99998188,-9.82652600
727.49998187,-9.97846900
727.99998185,-9.93417800
728.49998184,-9.71825700
728.99998182,-9.55585600
729.49998181,-9.45866100
729.99998180,-9.47280900
730.49998178,-9.62413800
730.99998177,-9.51464100
731.49998175,-9.14739100
731.99998174,-9.13877900
732.49998173,-9.47342500
732.99998171,-9.74532400
733.49998170,-9.93971300
733.99998168,-9.99507800
734.49998167,-9.90834100
734.99998166,-9.65612700
735.49998164,-9.28949300
735.99998163,-8.80597900
736.49998161,-8.24372500
736.99998160,-8.28186500
737.49998158,-8.88656500
737.99998157,-9.68073300
738.49998156,-10.57702000
738.99998154,-11.09313000
739.49998153,-11.14665000
739.99998151,-10.97871000
740.49998150,-10.59055000
740.99998149,-10.12365000
741.49998147,-9.64874500
741.99998146,-9.28580200
742.49998144,-9.09202700
742.99998143,-9.15231200
743.49998141,-9.47650100
743.99998140,-9.73732800
744.49998139,-9.89911400
744.99998137,-10.10765000
745.49998136,-10.33464000
745.99998134,-10.28236000
746.49998133,-9.95816900
746.99998132,-9.68380800
747.49998130,-9.46727400
747.99998129,-9.52509800
748.49998127,-9.86035800
748.99998126,-10.07443000
749.49998125,-10.15010000
749.99998123,-10.19931000
750.49998122,-10.21038000
750.99998120,-10.11134000
751.49998119,-9.92802600
751.99998117,-9.65858700
752.49998116,-9.32332600
752.99998115,-9.31225400
753.49998113,-9.60383800
753.99998112,-10.07689000
754.49998110,-10.67052000
754.99998109,-11.08821000
755.49998108,-11.27091000
755.99998106,-11.21617000
756.49998105,-10.92520000
756.99998103,-10.51058000
757.49998102,-10.03506000
757.99998100,-9.62044700
758.49998099,-9.32886300
758.99998098,-9.28211000
759.49998096,-9.49864600
759.99998095,-9.75947300
760.49998093,-10.02891000
760.99998092,-10.33957000
761.49998091,-10.64222000
761.99998089,-10.75172000
762.49998088,-10.66560000
762.99998086,-10.35249000
763.49998085,-9.85543700
763.99998084,-9.43836000
764.49998082,-9.15784900
764.99998081,-9.05327200
765.49998079,-9.13939400
765.99998078,-9.45250900
766.49998076,-9.94955700
766.99998075,-10.37525000
767.49998074,-10.68836000
767.99998072,-10.62808000
768.49998071,-10.18516000
768.99998069,-9.86343500
769.49998068,-9.69057600
769.99998067,-9.59215000
770.49998065,-9.59215000
770.99998064,-9.70718500
771.49998062,-9.94525100
771.99998061,-9.94279000
772.49998059,-9.69365100
772.99998058,-9.64136300
773.49998057,-9.79330700
773.99998055,-9.74655400
774.49998054,-9.51956200
774.99998052,-9.41806000
775.49998051,-9.46112200
775.99998050,-9.35716100
776.49998048,-9.11970900
776.99998047,-9.11109700
777.49998045,-9.31594500
777.99998044,-9.58538300
778.49998043,-9.89849900
778.99998041,-9.99999900
779.49998040,-9.87020200
779.99998038,-9.75516700
780.49998037,-9.64689900
780.99998035,-9.64382400
781.49998034,-9.74101800
781.99998033,-9.89788300
782.49998031,-10.09227000
782.99998030,-10.24606000
783.49998028,-10.33218000
783.99998027,-10.37340000
784.49998026,-10.34080000
784.99998024,-10.44783000
785.49998023,-10.68590000
785.99998021,-10.68344000
786.49998020,-10.43430000
786.99998018,-10.37648000
787.49998017,-10.50627000
787.99998016,-10.56717000
788.49998014,-10.56717000
788.99998013,-10.51181000
789.49998011,-10.40416000
789.99998010,-10.34879000
790.49998009,-10.34879000
790.99998007,-10.40969000
791.49998006,-10.53949000
791.99998004,-10.48413000
792.49998003,-10.24668000
792.99998001,-10.19685000
793.49998000,-10.34879000
793.99997999,-10.30758000
794.49997997,-10.10212000
794.99997996,-9.89050200
795.49997994,-9.69611200
795.99997993,-9.59768700
796.49997992,-9.61921700
796.99997990,-9.61921700
797.49997989,-9.59768700
797.99997987,-9.70164800
798.49997986,-9.91818300
798.99997985,-10.03322000
799.49997983,-10.05536000
799.99997982,-9.83821400
800.49997980,-9.39468400
800.99997979,-9.23535900
801.49997977,-9.37623000
801.99997976,-9.49187900
802.49997975,-9.58907400
802.99997973,-9.64136300
803.49997972,-9.64136300
803.99997970,-9.58599900
804.49997969,-9.47834600
804.99997968,-9.42298100
805.49997966,-9.42298100
805.99997965,-9.47527000
806.49997963,-9.57246500
806.99997962,-9.67150600
807.49997960,-9.74655400
807.99997959,-9.90096000
808.49997958,-10.10581000
808.99997956,-10.21038000
809.49997955,-10.19931000
809.99997953,-10.14702000
810.49997952,-10.06090000
810.99997951,-9.90403500
811.49997949,-9.69918700
811.99997948,-9.58907400
812.49997946,-9.57800100
812.99997945,-9.72933000
813.49997944,-10.00984000
813.99997942,-10.37525000
814.49997941,-10.77510000
814.99997939,-10.98671000
815.49997938,-10.98671000
815.99997936,-10.76403000
816.49997935,-10.32050000
816.99997934,-10.16671000
817.49997932,-10.32972000
817.99997931,-10.33772000
818.49997929,-10.20792000
818.99997928,-10.20792000
819.49997927,-10.33772000
819.99997925,-10.33772000
820.49997924,-10.20792000
820.99997922,-10.20792000
821.49997921,-10.33772000
821.99997919,-10.33772000
822.49997918,-10.20792000
822.99997917,-10.20485000
823.49997915,-10.32419000
823.99997914,-10.37894000
824.49997912,-10.36786000
824.99997911,-10.36786000
825.49997910,-10.37894000
825.99997908,-10.33218000
826.49997907,-10.24606000
826.99997905,-10.09227000
827.49997904,-9.89788300
827.99997903,-9.74409400
828.49997901,-9.65797200
828.99997900,-9.60568300
829.49997898,-9.59461100
829.99997897,-9.69918700
830.49997895,-9.90403500
830.99997894,-10.07505000
831.49997893,-10.21531000
831.99997891,-10.00123000
832.49997890,-9.45004800
832.99997888,-9.18614600
833.49997887,-9.24089500
833.99997886,-9.24889200
834.49997884,-9.22736200
834.99997883,-9.33132400
835.49997881,-9.54785900
835.99997880,-9.64936000
836.49997878,-9.61675600
836.99997877,-9.66596900
837.49997876,-9.78531000
837.99997874,-9.78223300
838.49997873,-9.65243500
838.99997871,-9.64689900
839.49997870,-9.75516700
839.99997869,-9.85912800
840.49997867,-9.94586600
840.99997866,-10.04429000
841.49997864,-10.13103000
841.99997863,-10.23499000
842.49997861,-10.34326000
842.99997860,-10.34326000
843.49997859,-10.23499000
843.99997857,-10.12795000
844.49997856,-10.03076000
844.99997854,-9.98154500
845.49997853,-9.99261800
845.99997852,-9.98954200
846.49997850,-9.96801100
846.99997849,-10.07505000
847.49997847,-10.30204000
847.99997846,-10.35433000
848.49997845,-10.22453000
848.99997843,-10.16671000
849.49997842,-10.17778000
849.99997840,-10.17778000
850.49997839,-10.16671000
850.99997837,-10.22146000
851.49997836,-10.34080000
851.99997835,-10.33526000
852.49997833,-10.19439000
852.99997832,-10.24668000
853.49997830,-10.48413000
853.99997829,-10.54195000
854.49997828,-10.42323000
854.99997826,-10.32173000
855.49997825,-10.25714000
855.99997823,-10.04552000
856.49997822,-9.71026000
856.99997820,-9.65797200
857.49997819,-9.89603700
857.99997818,-10.06398000
858.49997816,-10.16117000
858.99997815,-10.16609000
859.49997813,-10.09104000
859.99997812,-9.83267700
860.49997811,-9.43343900
860.99997809,-9.11724900
861.49997808,-8.92347400
861.99997806,-8.92347400
862.49997805,-9.11724900
862.99997804,-9.44389700
863.49997802,-9.88742500
863.99997801,-9.93417800
864.49997799,-9.56631400
864.99997798,-9.40145100
865.49997796,-9.44512700
865.99997795,-9.39837600
866.49997794,-9.27903600
866.99997792,-9.27657400
867.49997791,-9.38484200
867.99997789,-9.48634300
868.49997788,-9.56139200
868.99997787,-9.71825700
869.49997785,-9.93417800
869.99997784,-9.98400600
870.49997782,-9.85420700
870.99997781,-9.79884200
871.49997779,-9.82098900
871.99997778,-9.76316400
872.49997777,-9.62229300
872.99997775,-9.72133400
873.49997774,-10.03445000
873.99997772,-10.30389000
874.49997771,-10.50935000
874.99997770,-10.50627000
875.49997768,-10.29035000
875.99997767,-10.07874000
876.49997765,-9.89542300
876.99997764,-9.73855800
877.49997763,-9.63029000
877.99997761,-9.68565500
878.49997760,-9.90157400
878.99997758,-10.06090000
879.49997757,-10.14702000
879.99997755,-10.19685000
880.49997754,-10.19685000
880.99997753,-10.13902000
881.49997751,-10.01968000
881.99997750,-10.02276000
882.49997748,-10.15256000
882.99997747,-10.15563000
883.49997746,-10.03629000
883.99997744,-9.97600800
884.49997743,-9.96493600
884.99997741,-10.07197000
885.49997740,-10.28851000
885.99997738,-10.39247000
886.49997737,-10.37094000
886.99997736,-10.37340000
887.49997734,-10.40662000
887.99997733,-10.24975000
888.49997731,-9.92556500
888.99997730,-9.76624000
889.49997729,-9.78777000
889.99997727,-9.84559500
890.49997726,-9.94279000
890.99997724,-10.05290000
891.49997723,-10.17163000
891.99997722,-10.12488000
892.49997720,-9.93048700
892.99997719,-9.66412400
893.49997717,-9.35100800
893.99997716,-9.24643100
894.49997714,-9.36515700
894.99997713,-9.53309400
895.49997712,-9.74901500
895.99997710,-9.79576800
896.49997709,-9.65489600
896.99997707,-9.64936000
897.49997706,-9.76870100
897.99997705,-9.82652600
898.49997703,-9.82652600
898.99997702,-9.77116100
899.49997700,-9.66350800
899.99997699,-9.60814500
900.49997697,-9.60814500
900.99997696,-9.66043300
901.49997695,-9.75762700
901.99997693,-9.86220500
902.49997692,-9.95939900
